File: Spectras220924WS2/B14_10k_220924_1.txt
#FORMAT      : EMSA/MAS Spectral Data File
#VERSION     : 1.0
#TITLE       : B14_10k_220924_1
#DATE        : 23-SEP-2024
#TIME        : 10:03
#OWNER       :
#NPOINTS     : 2048.0
#NCOLUMNS    : 1.0
#XUNITS      : keV
#YUNITS      : counts
#DATATYPE    : XY
#XPERCHAN    : 0.005
#OFFSET      : -0.1
#SIGNALTYPE  : EDS
#CHOFFSET    : 20.0
#LIVETIME    : 60.0
#REALTIME    : 60.6132
#BEAMKV      : 10.0
#MAGCAM      : 900.0
#XTILTSTGE   : 0.0
#AZIMANGLE   : 0.0
#ELEVANGLE   : 25.5
#XPOSITION mm: -2.3375
#YPOSITION mm: -0.6483
#ZPOSITION mm: 13.3958
##OXINSTPT   : 2
##OXINSTSTROB: 69.76
##OXINSTELEMS: 8,16,74,14
##OXINSTLABEL: 8, 0.525, O K?1
##OXINSTLABEL: 16, 2.308, S K?1
##OXINSTLABEL: 16, 2.464, S K?1
##OXINSTLABEL: 74, 8.398, W L?1
##OXINSTLABEL: 74, 9.673, W L?1
##OXINSTLABEL: 74, 9.962, W L?2
##OXINSTLABEL: 74, 8.724, W L?
##OXINSTLABEL: 74, 7.388, W Ll
##OXINSTLABEL: 74, 1.775, W M?1
##OXINSTLABEL: 74, 2.035, W M?
##OXINSTLABEL: 74, 1.379, W M?2
##OXINSTLABEL: 74, 0.222, W N4-N6
##OXINSTLABEL: 74, 0.210, W N5-N6,7
##OXINSTLABEL: 14, 1.740, Si K?1
#SPECTRUM    : Spectral Data Starts Here
-0.10000, 0.0
-0.06500, 5.0
-0.03000, 85.0
0.00500, 684.0
0.04000, 1368.0
0.07500, 940.0
0.11000, 206.0
0.14500, 61.0
0.18000, 34.0
0.21500, 33.0
0.25000, 29.0
0.28500, 38.0
0.32000, 21.0
0.35500, 12.0
0.39000, 17.0
0.42500, 21.0
0.46000, 70.0
0.49500, 183.0
0.53000, 212.0
0.56500, 120.0
0.60000, 44.0
0.63500, 31.0
0.67000, 31.0
0.70500, 37.0
0.74000, 43.0
0.77500, 33.0
0.81000, 42.0
0.84500, 38.0
0.88000, 34.0
0.91500, 45.0
0.95000, 40.0
0.98500, 39.0
1.02000, 43.0
1.05500, 47.0
1.09000, 43.0
1.12500, 41.0
1.16000, 43.0
1.19500, 41.0
1.23000, 50.0
1.26500, 45.0
1.30000, 38.0
1.33500, 55.0
1.37000, 74.0
1.40500, 65.0
1.44000, 57.0
1.47500, 44.0
1.51000, 44.0
1.54500, 47.0
1.58000, 50.0
1.61500, 61.0
1.65000, 148.0
1.68500, 531.0
1.72000, 1252.0
1.75500, 1506.0
1.79000, 1106.0
1.82500, 538.0
1.86000, 286.0
1.89500, 108.0
1.93000, 44.0
1.96500, 27.0
2.00000, 36.0
2.03500, 32.0
2.07000, 33.0
2.10500, 25.0
2.14000, 24.0
2.17500, 24.0
2.21000, 39.0
2.24500, 90.0
2.28000, 188.0
2.31500, 289.0
2.35000, 192.0
2.38500, 87.0
2.42000, 50.0
2.45500, 32.0
2.49000, 31.0
2.52500, 31.0
2.56000, 23.0
2.59500, 13.0
2.63000, 19.0
2.66500, 16.0
2.70000, 20.0
2.73500, 12.0
2.77000, 18.0
2.80500, 16.0
2.84000, 19.0
2.87500, 16.0
2.91000, 13.0
2.94500, 19.0
2.98000, 14.0
3.01500, 12.0
3.05000, 11.0
3.08500, 12.0
3.12000, 17.0
3.15500, 14.0
3.19000, 22.0
3.22500, 19.0
3.26000, 19.0
3.29500, 13.0
3.33000, 12.0
3.36500, 9.0
3.40000, 12.0
3.43500, 13.0
3.47000, 19.0
3.50500, 12.0
3.54000, 18.0
3.57500, 14.0
3.61000, 13.0
3.64500, 21.0
3.68000, 15.0
3.71500, 15.0
3.75000, 13.0
3.78500, 9.0
3.82000, 18.0
3.85500, 15.0
3.89000, 12.0
3.92500, 8.0
3.96000, 16.0
3.99500, 15.0
4.03000, 14.0
4.06500, 7.0
4.10000, 14.0
4.13500, 17.0
4.17000, 12.0
4.20500, 15.0
4.24000, 8.0
4.27500, 17.0
4.31000, 13.0
4.34500, 13.0
4.38000, 14.0
4.41500, 8.0
4.45000, 9.0
4.48500, 15.0
4.52000, 13.0
4.55500, 9.0
4.59000, 10.0
4.62500, 17.0
4.66000, 5.0
4.69500, 6.0
4.73000, 11.0
4.76500, 13.0
4.80000, 8.0
4.83500, 9.0
4.87000, 9.0
4.90500, 7.0
4.94000, 13.0
4.97500, 11.0
5.01000, 12.0
5.04500, 12.0
5.08000, 8.0
5.11500, 8.0
5.15000, 10.0
5.18500, 11.0
5.22000, 10.0
5.25500, 5.0
5.29000, 6.0
5.32500, 5.0
5.36000, 7.0
5.39500, 8.0
5.43000, 10.0
5.46500, 8.0
5.50000, 6.0
5.53500, 5.0
5.57000, 10.0
5.60500, 7.0
5.64000, 6.0
5.67500, 10.0
5.71000, 8.0
5.74500, 5.0
5.78000, 4.0
5.81500, 4.0
5.85000, 10.0
5.88500, 9.0
5.92000, 7.0
5.95500, 5.0
5.99000, 3.0
6.02500, 7.0
6.06000, 8.0
6.09500, 6.0
6.13000, 7.0
6.16500, 8.0
6.20000, 5.0
6.23500, 9.0
6.27000, 6.0
6.30500, 7.0
6.34000, 4.0
6.37500, 3.0
6.41000, 5.0
6.44500, 4.0
6.48000, 5.0
6.51500, 3.0
6.55000, 8.0
6.58500, 5.0
6.62000, 6.0
6.65500, 5.0
6.69000, 4.0
6.72500, 6.0
6.76000, 6.0
6.79500, 7.0
6.83000, 5.0
6.86500, 6.0
6.90000, 4.0
6.93500, 8.0
6.97000, 6.0
7.00500, 3.0
7.04000, 5.0
7.07500, 6.0
7.11000, 8.0
7.14500, 6.0
7.18000, 4.0
7.21500, 6.0
7.25000, 5.0
7.28500, 6.0
7.32000, 4.0
7.35500, 3.0
7.39000, 2.0
7.42500, 7.0
7.46000, 4.0
7.49500, 6.0
7.53000, 3.0
7.56500, 4.0
7.60000, 4.0
7.63500, 5.0
7.67000, 2.0
7.70500, 2.0
7.74000, 4.0
7.77500, 5.0
7.81000, 0.0
7.84500, 8.0
7.88000, 2.0
7.91500, 4.0
7.95000, 4.0
7.98500, 1.0
8.02000, 3.0
8.05500, 3.0
8.09000, 2.0
8.12500, 3.0
8.16000, 4.0
8.19500, 2.0
8.23000, 1.0
8.26500, 2.0
8.30000, 3.0
8.33500, 0.0
8.37000, 5.0
8.40500, 5.0
8.44000, 2.0
8.47500, 2.0
8.51000, 4.0
8.54500, 4.0
8.58000, 2.0
8.61500, 4.0
8.65000, 6.0
8.68500, 4.0
8.72000, 2.0
8.75500, 2.0
8.79000, 2.0
8.82500, 1.0
8.86000, 3.0
8.89500, 1.0
8.93000, 4.0
8.96500, 0.0
9.00000, 1.0
9.03500, 1.0
9.07000, 1.0
9.10500, 0.0
9.14000, 0.0
9.17500, 1.0
9.21000, 2.0
9.24500, 2.0
9.28000, 3.0
9.31500, 4.0
9.35000, 4.0
9.38500, 4.0
9.42000, 3.0
9.45500, 1.0
9.49000, 2.0
9.52500, 0.0
9.56000, 1.0
9.59500, 1.0
9.63000, 1.0
9.66500, 4.0
9.70000, 1.0
9.73500, 1.0
9.77000, 1.0
9.80500, 0.0
9.84000, 2.0
9.87500, 1.0
9.91000, 2.0
9.94500, 1.0
9.98000, 0.0
10.01500, 0.0
10.05000, 0.0
10.08500, 0.0
10.12000, 0.0
10.13500, 0.0
#ENDOFDATA   :