File: Spectras220924WS2/C14_10k_220924_A2_2.txt
#FORMAT      : EMSA/MAS Spectral Data File
#VERSION     : 1.0
#TITLE       : C14_10k_220924_A2_2
#DATE        : 23-SEP-2024
#TIME        : 09:56
#OWNER       :
#NPOINTS     : 2048.0
#NCOLUMNS    : 1.0
#XUNITS      : keV
#YUNITS      : counts
#DATATYPE    : XY
#XPERCHAN    : 0.005
#OFFSET      : -0.1
#SIGNALTYPE  : EDS
#CHOFFSET    : 20.0
#LIVETIME    : 60.0
#REALTIME    : 60.6602
#BEAMKV      : 10.0
#MAGCAM      : 5000.0
#XTILTSTGE   : 0.0
#AZIMANGLE   : 0.0
#ELEVANGLE   : 25.5
#XPOSITION mm: -2.0833
#YPOSITION mm: -0.5453
#ZPOSITION mm: 13.3732
##OXINSTPT   : 2
##OXINSTSTROB: 69.78
##OXINSTELEMS: 8,16,74,14
##OXINSTLABEL: 8, 0.525, O K?1
##OXINSTLABEL: 16, 2.308, S K?1
##OXINSTLABEL: 16, 2.464, S K?1
##OXINSTLABEL: 74, 8.398, W L?1
##OXINSTLABEL: 74, 9.673, W L?1
##OXINSTLABEL: 74, 9.962, W L?2
##OXINSTLABEL: 74, 8.724, W L?
##OXINSTLABEL: 74, 7.388, W Ll
##OXINSTLABEL: 74, 1.775, W M?1
##OXINSTLABEL: 74, 2.035, W M?
##OXINSTLABEL: 74, 1.379, W M?2
##OXINSTLABEL: 74, 0.222, W N4-N6
##OXINSTLABEL: 74, 0.210, W N5-N6,7
##OXINSTLABEL: 14, 1.740, Si K?1
#SPECTRUM    : Spectral Data Starts Here
-0.10000, 0.0
-0.06500, 7.0
-0.03000, 115.0
0.00500, 668.0
0.04000, 1360.0
0.07500, 957.0
0.11000, 208.0
0.14500, 17.0
0.18000, 8.0
0.21500, 9.0
0.25000, 18.0
0.28500, 17.0
0.32000, 18.0
0.35500, 11.0
0.39000, 26.0
0.42500, 51.0
0.46000, 214.0
0.49500, 728.0
0.53000, 991.0
0.56500, 465.0
0.60000, 78.0
0.63500, 17.0
0.67000, 17.0
0.70500, 24.0
0.74000, 19.0
0.77500, 23.0
0.81000, 25.0
0.84500, 26.0
0.88000, 31.0
0.91500, 21.0
0.95000, 38.0
0.98500, 30.0
1.02000, 37.0
1.05500, 35.0
1.09000, 31.0
1.12500, 34.0
1.16000, 32.0
1.19500, 32.0
1.23000, 29.0
1.26500, 39.0
1.30000, 32.0
1.33500, 42.0
1.37000, 34.0
1.40500, 45.0
1.44000, 36.0
1.47500, 38.0
1.51000, 36.0
1.54500, 37.0
1.58000, 40.0
1.61500, 53.0
1.65000, 226.0
1.68500, 952.0
1.72000, 2175.0
1.75500, 2516.0
1.79000, 1339.0
1.82500, 465.0
1.86000, 144.0
1.89500, 58.0
1.93000, 31.0
1.96500, 10.0
2.00000, 15.0
2.03500, 19.0
2.07000, 19.0
2.10500, 16.0
2.14000, 18.0
2.17500, 12.0
2.21000, 21.0
2.24500, 20.0
2.28000, 17.0
2.31500, 24.0
2.35000, 19.0
2.38500, 12.0
2.42000, 18.0
2.45500, 11.0
2.49000, 15.0
2.52500, 10.0
2.56000, 10.0
2.59500, 12.0
2.63000, 11.0
2.66500, 11.0
2.70000, 10.0
2.73500, 11.0
2.77000, 17.0
2.80500, 16.0
2.84000, 10.0
2.87500, 10.0
2.91000, 12.0
2.94500, 9.0
2.98000, 11.0
3.01500, 14.0
3.05000, 11.0
3.08500, 6.0
3.12000, 11.0
3.15500, 13.0
3.19000, 10.0
3.22500, 14.0
3.26000, 9.0
3.29500, 8.0
3.33000, 13.0
3.36500, 13.0
3.40000, 11.0
3.43500, 9.0
3.47000, 13.0
3.50500, 14.0
3.54000, 11.0
3.57500, 5.0
3.61000, 12.0
3.64500, 7.0
3.68000, 8.0
3.71500, 10.0
3.75000, 7.0
3.78500, 9.0
3.82000, 9.0
3.85500, 9.0
3.89000, 10.0
3.92500, 8.0
3.96000, 7.0
3.99500, 4.0
4.03000, 9.0
4.06500, 7.0
4.10000, 4.0
4.13500, 10.0
4.17000, 7.0
4.20500, 4.0
4.24000, 8.0
4.27500, 7.0
4.31000, 7.0
4.34500, 7.0
4.38000, 9.0
4.41500, 5.0
4.45000, 14.0
4.48500, 5.0
4.52000, 11.0
4.55500, 4.0
4.59000, 6.0
4.62500, 8.0
4.66000, 3.0
4.69500, 5.0
4.73000, 8.0
4.76500, 6.0
4.80000, 6.0
4.83500, 8.0
4.87000, 6.0
4.90500, 2.0
4.94000, 5.0
4.97500, 5.0
5.01000, 4.0
5.04500, 2.0
5.08000, 4.0
5.11500, 4.0
5.15000, 6.0
5.18500, 7.0
5.22000, 4.0
5.25500, 1.0
5.29000, 4.0
5.32500, 4.0
5.36000, 4.0
5.39500, 2.0
5.43000, 4.0
5.46500, 5.0
5.50000, 2.0
5.53500, 2.0
5.57000, 5.0
5.60500, 3.0
5.64000, 3.0
5.67500, 5.0
5.71000, 3.0
5.74500, 3.0
5.78000, 3.0
5.81500, 2.0
5.85000, 5.0
5.88500, 3.0
5.92000, 4.0
5.95500, 5.0
5.99000, 3.0
6.02500, 3.0
6.06000, 2.0
6.09500, 2.0
6.13000, 3.0
6.16500, 2.0
6.20000, 1.0
6.23500, 5.0
6.27000, 2.0
6.30500, 1.0
6.34000, 4.0
6.37500, 3.0
6.41000, 3.0
6.44500, 3.0
6.48000, 1.0
6.51500, 2.0
6.55000, 2.0
6.58500, 3.0
6.62000, 1.0
6.65500, 3.0
6.69000, 1.0
6.72500, 1.0
6.76000, 3.0
6.79500, 1.0
6.83000, 2.0
6.86500, 2.0
6.90000, 3.0
6.93500, 1.0
6.97000, 0.0
7.00500, 2.0
7.04000, 1.0
7.07500, 1.0
7.11000, 3.0
7.14500, 2.0
7.18000, 1.0
7.21500, 0.0
7.25000, 3.0
7.28500, 1.0
7.32000, 0.0
7.35500, 1.0
7.39000, 0.0
7.42500, 3.0
7.46000, 1.0
7.49500, 3.0
7.53000, 2.0
7.56500, 3.0
7.60000, 2.0
7.63500, 1.0
7.67000, 2.0
7.70500, 2.0
7.74000, 4.0
7.77500, 2.0
7.81000, 1.0
7.84500, 1.0
7.88000, 1.0
7.91500, 4.0
7.95000, 2.0
7.98500, 3.0
8.02000, 0.0
8.05500, 1.0
8.09000, 2.0
8.12500, 0.0
8.16000, 0.0
8.19500, 0.0
8.23000, 1.0
8.26500, 0.0
8.30000, 0.0
8.33500, 3.0
8.37000, 2.0
8.40500, 1.0
8.44000, 1.0
8.47500, 0.0
8.51000, 0.0
8.54500, 3.0
8.58000, 2.0
8.61500, 1.0
8.65000, 1.0
8.68500, 2.0
8.72000, 1.0
8.75500, 2.0
8.79000, 1.0
8.82500, 1.0
8.86000, 2.0
8.89500, 0.0
8.93000, 1.0
8.96500, 1.0
9.00000, 1.0
9.03500, 0.0
9.07000, 2.0
9.10500, 1.0
9.14000, 0.0
9.17500, 0.0
9.21000, 0.0
9.24500, 0.0
9.28000, 0.0
9.31500, 0.0
9.35000, 0.0
9.38500, 0.0
9.42000, 0.0
9.45500, 2.0
9.49000, 0.0
9.52500, 0.0
9.56000, 1.0
9.59500, 0.0
9.63000, 1.0
9.66500, 2.0
9.70000, 0.0
9.73500, 1.0
9.77000, 0.0
9.80500, 0.0
9.84000, 0.0
9.87500, 0.0
9.91000, 1.0
9.94500, 1.0
9.98000, 0.0
10.01500, 1.0
10.05000, 0.0
10.08500, 0.0
10.12000, 0.0
10.13500, 0.0
#ENDOFDATA   :