File: Spectras220924WS2/D6_10k_220924_2.txt
#FORMAT      : EMSA/MAS Spectral Data File
#VERSION     : 1.0
#TITLE       : D6_10k_220924_2
#DATE        : 23-SEP-2024
#TIME        : 09:24
#OWNER       :
#NPOINTS     : 2048.0
#NCOLUMNS    : 1.0
#XUNITS      : keV
#YUNITS      : counts
#DATATYPE    : XY
#XPERCHAN    : 0.005
#OFFSET      : -0.1
#SIGNALTYPE  : EDS
#CHOFFSET    : 20.0
#LIVETIME    : 60.0
#REALTIME    : 60.6142
#BEAMKV      : 10.0
#MAGCAM      : 400.0
#XTILTSTGE   : 0.0
#AZIMANGLE   : 0.0
#ELEVANGLE   : 25.5
#XPOSITION mm: -2.0203
#YPOSITION mm: -2.5298
#ZPOSITION mm: 13.4060
##OXINSTPT   : 2
##OXINSTSTROB: 69.72
##OXINSTELEMS: 30,8,16
##OXINSTLABEL: 30, 8.639, Zn K?1
##OXINSTLABEL: 30, 9.572, Zn K?1
##OXINSTLABEL: 30, 1.012, Zn L?1,2
##OXINSTLABEL: 30, 0.906, Zn L?
##OXINSTLABEL: 30, 0.884, Zn Ll
##OXINSTLABEL: 8, 0.525, O K?1
##OXINSTLABEL: 16, 2.308, S K?1
##OXINSTLABEL: 16, 2.464, S K?1
#SPECTRUM    : Spectral Data Starts Here
-0.10000, 0.0
-0.06500, 5.0
-0.03000, 106.0
0.00500, 689.0
0.04000, 1404.0
0.07500, 921.0
0.11000, 186.0
0.14500, 17.0
0.18000, 10.0
0.21500, 17.0
0.25000, 20.0
0.28500, 21.0
0.32000, 12.0
0.35500, 12.0
0.39000, 17.0
0.42500, 49.0
0.46000, 217.0
0.49500, 679.0
0.53000, 882.0
0.56500, 419.0
0.60000, 84.0
0.63500, 22.0
0.67000, 19.0
0.70500, 13.0
0.74000, 17.0
0.77500, 23.0
0.81000, 24.0
0.84500, 24.0
0.88000, 29.0
0.91500, 30.0
0.95000, 30.0
0.98500, 33.0
1.02000, 28.0
1.05500, 31.0
1.09000, 31.0
1.12500, 33.0
1.16000, 39.0
1.19500, 43.0
1.23000, 26.0
1.26500, 36.0
1.30000, 37.0
1.33500, 38.0
1.37000, 40.0
1.40500, 29.0
1.44000, 41.0
1.47500, 31.0
1.51000, 40.0
1.54500, 44.0
1.58000, 36.0
1.61500, 54.0
1.65000, 207.0
1.68500, 877.0
1.72000, 2112.0
1.75500, 2402.0
1.79000, 1313.0
1.82500, 453.0
1.86000, 147.0
1.89500, 65.0
1.93000, 33.0
1.96500, 12.0
2.00000, 20.0
2.03500, 14.0
2.07000, 19.0
2.10500, 11.0
2.14000, 12.0
2.17500, 15.0
2.21000, 20.0
2.24500, 25.0
2.28000, 42.0
2.31500, 37.0
2.35000, 39.0
2.38500, 20.0
2.42000, 18.0
2.45500, 20.0
2.49000, 19.0
2.52500, 14.0
2.56000, 14.0
2.59500, 12.0
2.63000, 8.0
2.66500, 16.0
2.70000, 8.0
2.73500, 15.0
2.77000, 13.0
2.80500, 9.0
2.84000, 14.0
2.87500, 8.0
2.91000, 8.0
2.94500, 14.0
2.98000, 18.0
3.01500, 11.0
3.05000, 14.0
3.08500, 12.0
3.12000, 8.0
3.15500, 8.0
3.19000, 14.0
3.22500, 8.0
3.26000, 10.0
3.29500, 6.0
3.33000, 9.0
3.36500, 7.0
3.40000, 9.0
3.43500, 9.0
3.47000, 10.0
3.50500, 10.0
3.54000, 10.0
3.57500, 9.0
3.61000, 8.0
3.64500, 13.0
3.68000, 13.0
3.71500, 9.0
3.75000, 7.0
3.78500, 8.0
3.82000, 7.0
3.85500, 11.0
3.89000, 9.0
3.92500, 5.0
3.96000, 6.0
3.99500, 10.0
4.03000, 7.0
4.06500, 9.0
4.10000, 2.0
4.13500, 7.0
4.17000, 11.0
4.20500, 9.0
4.24000, 8.0
4.27500, 6.0
4.31000, 8.0
4.34500, 7.0
4.38000, 5.0
4.41500, 5.0
4.45000, 7.0
4.48500, 2.0
4.52000, 10.0
4.55500, 4.0
4.59000, 4.0
4.62500, 3.0
4.66000, 6.0
4.69500, 7.0
4.73000, 6.0
4.76500, 5.0
4.80000, 5.0
4.83500, 8.0
4.87000, 7.0
4.90500, 6.0
4.94000, 6.0
4.97500, 6.0
5.01000, 6.0
5.04500, 5.0
5.08000, 3.0
5.11500, 3.0
5.15000, 7.0
5.18500, 6.0
5.22000, 4.0
5.25500, 4.0
5.29000, 4.0
5.32500, 2.0
5.36000, 5.0
5.39500, 2.0
5.43000, 6.0
5.46500, 4.0
5.50000, 4.0
5.53500, 2.0
5.57000, 3.0
5.60500, 5.0
5.64000, 5.0
5.67500, 2.0
5.71000, 4.0
5.74500, 1.0
5.78000, 3.0
5.81500, 7.0
5.85000, 4.0
5.88500, 1.0
5.92000, 2.0
5.95500, 5.0
5.99000, 7.0
6.02500, 3.0
6.06000, 4.0
6.09500, 4.0
6.13000, 3.0
6.16500, 3.0
6.20000, 3.0
6.23500, 2.0
6.27000, 3.0
6.30500, 5.0
6.34000, 2.0
6.37500, 3.0
6.41000, 1.0
6.44500, 5.0
6.48000, 4.0
6.51500, 2.0
6.55000, 3.0
6.58500, 4.0
6.62000, 3.0
6.65500, 3.0
6.69000, 2.0
6.72500, 2.0
6.76000, 3.0
6.79500, 2.0
6.83000, 2.0
6.86500, 2.0
6.90000, 1.0
6.93500, 1.0
6.97000, 3.0
7.00500, 4.0
7.04000, 3.0
7.07500, 2.0
7.11000, 2.0
7.14500, 2.0
7.18000, 1.0
7.21500, 2.0
7.25000, 2.0
7.28500, 2.0
7.32000, 0.0
7.35500, 2.0
7.39000, 3.0
7.42500, 2.0
7.46000, 1.0
7.49500, 1.0
7.53000, 3.0
7.56500, 1.0
7.60000, 3.0
7.63500, 2.0
7.67000, 1.0
7.70500, 3.0
7.74000, 1.0
7.77500, 0.0
7.81000, 3.0
7.84500, 0.0
7.88000, 0.0
7.91500, 0.0
7.95000, 1.0
7.98500, 1.0
8.02000, 2.0
8.05500, 1.0
8.09000, 1.0
8.12500, 1.0
8.16000, 3.0
8.19500, 2.0
8.23000, 1.0
8.26500, 2.0
8.30000, 1.0
8.33500, 2.0
8.37000, 1.0
8.40500, 1.0
8.44000, 0.0
8.47500, 1.0
8.51000, 1.0
8.54500, 2.0
8.58000, 2.0
8.61500, 2.0
8.65000, 0.0
8.68500, 2.0
8.72000, 0.0
8.75500, 1.0
8.79000, 2.0
8.82500, 0.0
8.86000, 0.0
8.89500, 0.0
8.93000, 0.0
8.96500, 0.0
9.00000, 0.0
9.03500, 0.0
9.07000, 0.0
9.10500, 1.0
9.14000, 0.0
9.17500, 1.0
9.21000, 0.0
9.24500, 0.0
9.28000, 0.0
9.31500, 0.0
9.35000, 0.0
9.38500, 0.0
9.42000, 1.0
9.45500, 2.0
9.49000, 0.0
9.52500, 0.0
9.56000, 0.0
9.59500, 1.0
9.63000, 0.0
9.66500, 1.0
9.70000, 0.0
9.73500, 0.0
9.77000, 0.0
9.80500, 0.0
9.84000, 0.0
9.87500, 0.0
9.91000, 0.0
9.94500, 0.0
9.98000, 0.0
10.01500, 0.0
10.05000, 0.0
10.08500, 0.0
10.12000, 1.0
10.13500, 0.0
#ENDOFDATA   :