File: Spectras220924WS2/D6_10k_220924_A2_1.txt
#FORMAT      : EMSA/MAS Spectral Data File
#VERSION     : 1.0
#TITLE       : D6_10k_220924_A2_1
#DATE        : 23-SEP-2024
#TIME        : 09:26
#OWNER       :
#NPOINTS     : 2048.0
#NCOLUMNS    : 1.0
#XUNITS      : keV
#YUNITS      : counts
#DATATYPE    : XY
#XPERCHAN    : 0.005
#OFFSET      : -0.1
#SIGNALTYPE  : EDS
#CHOFFSET    : 20.0
#LIVETIME    : 60.0
#REALTIME    : 60.6332
#BEAMKV      : 10.0
#MAGCAM      : 400.0
#XTILTSTGE   : 0.0
#AZIMANGLE   : 0.0
#ELEVANGLE   : 25.5
#XPOSITION mm: -2.0203
#YPOSITION mm: -2.5298
#ZPOSITION mm: 13.4060
##OXINSTPT   : 2
##OXINSTSTROB: 69.74
##OXINSTELEMS: 30,8,16
##OXINSTLABEL: 30, 8.639, Zn K?1
##OXINSTLABEL: 30, 9.572, Zn K?1
##OXINSTLABEL: 30, 1.012, Zn L?1,2
##OXINSTLABEL: 30, 0.906, Zn L?
##OXINSTLABEL: 30, 0.884, Zn Ll
##OXINSTLABEL: 8, 0.525, O K?1
##OXINSTLABEL: 16, 2.308, S K?1
##OXINSTLABEL: 16, 2.464, S K?1
#SPECTRUM    : Spectral Data Starts Here
-0.10000, 0.0
-0.06500, 8.0
-0.03000, 113.0
0.00500, 668.0
0.04000, 1330.0
0.07500, 891.0
0.11000, 197.0
0.14500, 27.0
0.18000, 10.0
0.21500, 20.0
0.25000, 23.0
0.28500, 13.0
0.32000, 11.0
0.35500, 18.0
0.39000, 19.0
0.42500, 55.0
0.46000, 202.0
0.49500, 678.0
0.53000, 875.0
0.56500, 446.0
0.60000, 89.0
0.63500, 24.0
0.67000, 18.0
0.70500, 21.0
0.74000, 19.0
0.77500, 24.0
0.81000, 33.0
0.84500, 32.0
0.88000, 32.0
0.91500, 28.0
0.95000, 31.0
0.98500, 29.0
1.02000, 32.0
1.05500, 36.0
1.09000, 28.0
1.12500, 34.0
1.16000, 40.0
1.19500, 41.0
1.23000, 35.0
1.26500, 30.0
1.30000, 32.0
1.33500, 39.0
1.37000, 34.0
1.40500, 44.0
1.44000, 35.0
1.47500, 30.0
1.51000, 40.0
1.54500, 36.0
1.58000, 49.0
1.61500, 56.0
1.65000, 204.0
1.68500, 917.0
1.72000, 2130.0
1.75500, 2335.0
1.79000, 1340.0
1.82500, 420.0
1.86000, 148.0
1.89500, 55.0
1.93000, 19.0
1.96500, 20.0
2.00000, 13.0
2.03500, 20.0
2.07000, 13.0
2.10500, 13.0
2.14000, 13.0
2.17500, 15.0
2.21000, 19.0
2.24500, 24.0
2.28000, 30.0
2.31500, 45.0
2.35000, 31.0
2.38500, 18.0
2.42000, 14.0
2.45500, 12.0
2.49000, 10.0
2.52500, 19.0
2.56000, 17.0
2.59500, 12.0
2.63000, 12.0
2.66500, 12.0
2.70000, 16.0
2.73500, 13.0
2.77000, 16.0
2.80500, 19.0
2.84000, 14.0
2.87500, 10.0
2.91000, 14.0
2.94500, 16.0
2.98000, 12.0
3.01500, 10.0
3.05000, 12.0
3.08500, 10.0
3.12000, 8.0
3.15500, 8.0
3.19000, 13.0
3.22500, 7.0
3.26000, 11.0
3.29500, 17.0
3.33000, 15.0
3.36500, 9.0
3.40000, 14.0
3.43500, 13.0
3.47000, 10.0
3.50500, 7.0
3.54000, 9.0
3.57500, 8.0
3.61000, 11.0
3.64500, 11.0
3.68000, 5.0
3.71500, 12.0
3.75000, 3.0
3.78500, 9.0
3.82000, 10.0
3.85500, 8.0
3.89000, 9.0
3.92500, 8.0
3.96000, 8.0
3.99500, 6.0
4.03000, 4.0
4.06500, 4.0
4.10000, 7.0
4.13500, 8.0
4.17000, 8.0
4.20500, 6.0
4.24000, 10.0
4.27500, 10.0
4.31000, 7.0
4.34500, 3.0
4.38000, 6.0
4.41500, 2.0
4.45000, 7.0
4.48500, 4.0
4.52000, 6.0
4.55500, 7.0
4.59000, 3.0
4.62500, 11.0
4.66000, 6.0
4.69500, 5.0
4.73000, 5.0
4.76500, 7.0
4.80000, 4.0
4.83500, 4.0
4.87000, 4.0
4.90500, 3.0
4.94000, 8.0
4.97500, 4.0
5.01000, 3.0
5.04500, 7.0
5.08000, 5.0
5.11500, 3.0
5.15000, 5.0
5.18500, 5.0
5.22000, 3.0
5.25500, 4.0
5.29000, 5.0
5.32500, 5.0
5.36000, 8.0
5.39500, 3.0
5.43000, 5.0
5.46500, 6.0
5.50000, 2.0
5.53500, 4.0
5.57000, 5.0
5.60500, 3.0
5.64000, 4.0
5.67500, 4.0
5.71000, 5.0
5.74500, 4.0
5.78000, 6.0
5.81500, 3.0
5.85000, 3.0
5.88500, 3.0
5.92000, 4.0
5.95500, 3.0
5.99000, 5.0
6.02500, 5.0
6.06000, 2.0
6.09500, 3.0
6.13000, 1.0
6.16500, 4.0
6.20000, 6.0
6.23500, 2.0
6.27000, 5.0
6.30500, 2.0
6.34000, 3.0
6.37500, 4.0
6.41000, 2.0
6.44500, 4.0
6.48000, 5.0
6.51500, 3.0
6.55000, 2.0
6.58500, 1.0
6.62000, 4.0
6.65500, 3.0
6.69000, 4.0
6.72500, 2.0
6.76000, 2.0
6.79500, 2.0
6.83000, 3.0
6.86500, 3.0
6.90000, 0.0
6.93500, 3.0
6.97000, 0.0
7.00500, 2.0
7.04000, 6.0
7.07500, 3.0
7.11000, 0.0
7.14500, 3.0
7.18000, 3.0
7.21500, 4.0
7.25000, 1.0
7.28500, 2.0
7.32000, 2.0
7.35500, 2.0
7.39000, 1.0
7.42500, 2.0
7.46000, 2.0
7.49500, 3.0
7.53000, 1.0
7.56500, 4.0
7.60000, 1.0
7.63500, 3.0
7.67000, 3.0
7.70500, 2.0
7.74000, 0.0
7.77500, 1.0
7.81000, 3.0
7.84500, 1.0
7.88000, 2.0
7.91500, 0.0
7.95000, 1.0
7.98500, 0.0
8.02000, 0.0
8.05500, 1.0
8.09000, 0.0
8.12500, 2.0
8.16000, 3.0
8.19500, 1.0
8.23000, 1.0
8.26500, 2.0
8.30000, 1.0
8.33500, 0.0
8.37000, 2.0
8.40500, 0.0
8.44000, 2.0
8.47500, 0.0
8.51000, 1.0
8.54500, 1.0
8.58000, 0.0
8.61500, 0.0
8.65000, 1.0
8.68500, 0.0
8.72000, 0.0
8.75500, 0.0
8.79000, 0.0
8.82500, 1.0
8.86000, 0.0
8.89500, 1.0
8.93000, 0.0
8.96500, 0.0
9.00000, 0.0
9.03500, 0.0
9.07000, 0.0
9.10500, 0.0
9.14000, 1.0
9.17500, 1.0
9.21000, 2.0
9.24500, 0.0
9.28000, 0.0
9.31500, 1.0
9.35000, 0.0
9.38500, 0.0
9.42000, 0.0
9.45500, 1.0
9.49000, 0.0
9.52500, 0.0
9.56000, 1.0
9.59500, 0.0
9.63000, 0.0
9.66500, 0.0
9.70000, 1.0
9.73500, 0.0
9.77000, 0.0
9.80500, 1.0
9.84000, 0.0
9.87500, 0.0
9.91000, 0.0
9.94500, 0.0
9.98000, 0.0
10.01500, 1.0
10.05000, 0.0
10.08500, 0.0
10.12000, 0.0
10.13500, 0.0
#ENDOFDATA   :