File: A10_15keV_10_02.txt
#FORMAT      : EMSA/MAS Spectral Data File
#VERSION     : 1.0
#TITLE       : A10_15keV_10_02
#DATE        : 04-JUL-2024
#TIME        : 10:28
#OWNER       :
#NPOINTS     : 1024.0
#NCOLUMNS    : 1.0
#XUNITS      : keV
#YUNITS      : counts
#DATATYPE    : XY
#XPERCHAN    : 0.02
#OFFSET      : -0.2
#SIGNALTYPE  : EDS
#CHOFFSET    : 10.0
#LIVETIME    : 120.075
#REALTIME    : 122.514
#BEAMKV      : 15.0
#MAGCAM      : 220.0
#XTILTSTGE   : 0.0
#AZIMANGLE   : 0.0
#ELEVANGLE   : 25.5
#XPOSITION mm: -0.1828
#YPOSITION mm: -1.1990
#ZPOSITION mm: 14.6374
##OXINSTPT   : 2
##OXINSTSTROB: 69.77
##OXINSTELEMS: 6,8,16,29,7,15,9
##OXINSTLABEL: 6, 0.277, C K?1_2
##OXINSTLABEL: 8, 0.525, O K?1
##OXINSTLABEL: 16, 2.308, S K?1
##OXINSTLABEL: 16, 2.464, S K?1
##OXINSTLABEL: 29, 8.048, Cu K?1
##OXINSTLABEL: 29, 8.905, Cu K?1
##OXINSTLABEL: 29, 0.930, Cu L?1,2
##OXINSTLABEL: 29, 0.832, Cu L?
##OXINSTLABEL: 29, 0.811, Cu Ll
##OXINSTLABEL: 7, 0.392, N K?1_2
##OXINSTLABEL: 15, 2.014, P K?1
##OXINSTLABEL: 15, 2.139, P K?1
##OXINSTLABEL: 9, 0.677, F K?1_2
#SPECTRUM    : Spectral Data Starts Here
-0.20000, 0.0
-0.12000, 0.0
-0.04000, 516.0
0.04000, 10058.0
0.12000, 1979.0
0.20000, 1014.0
0.28000, 460.0
0.36000, 173.0
0.44000, 237.0
0.52000, 699.0
0.60000, 792.0
0.68000, 459.0
0.76000, 495.0
0.84000, 530.0
0.92000, 617.0
1.00000, 714.0
1.08000, 776.0
1.16000, 820.0
1.24000, 834.0
1.32000, 861.0
1.40000, 859.0
1.48000, 868.0
1.56000, 887.0
1.64000, 1015.0
1.72000, 3604.0
1.80000, 2187.0
1.88000, 911.0
1.96000, 1058.0
2.04000, 1394.0
2.12000, 1038.0
2.20000, 3708.0
2.28000, 34046.0
2.36000, 25013.0
2.44000, 7446.0
2.52000, 2543.0
2.60000, 673.0
2.68000, 438.0
2.76000, 376.0
2.84000, 473.0
2.92000, 366.0
3.00000, 307.0
3.08000, 317.0
3.16000, 340.0
3.24000, 335.0
3.32000, 316.0
3.40000, 332.0
3.48000, 298.0
3.56000, 316.0
3.64000, 298.0
3.72000, 335.0
3.80000, 314.0
3.88000, 301.0
3.96000, 317.0
4.04000, 280.0
4.12000, 296.0
4.20000, 307.0
4.28000, 298.0
4.36000, 293.0
4.44000, 286.0
4.52000, 269.0
4.60000, 295.0
4.68000, 282.0
4.76000, 264.0
4.84000, 272.0
4.92000, 246.0
5.00000, 237.0
5.08000, 231.0
5.16000, 256.0
5.24000, 225.0
5.32000, 236.0
5.40000, 226.0
5.48000, 199.0
5.56000, 195.0
5.64000, 210.0
5.72000, 208.0
5.80000, 213.0
5.88000, 197.0
5.96000, 207.0
6.04000, 187.0
6.12000, 196.0
6.20000, 187.0
6.28000, 163.0
6.36000, 147.0
6.44000, 173.0
6.52000, 175.0
6.60000, 168.0
6.68000, 154.0
6.76000, 156.0
6.84000, 160.0
6.92000, 143.0
7.00000, 166.0
7.08000, 154.0
7.16000, 141.0
7.24000, 147.0
7.32000, 123.0
7.40000, 136.0
7.48000, 133.0
7.56000, 137.0
7.64000, 132.0
7.72000, 128.0
7.80000, 136.0
7.88000, 129.0
7.96000, 122.0
8.04000, 110.0
8.12000, 117.0
8.20000, 108.0
8.28000, 109.0
8.36000, 121.0
8.44000, 115.0
8.52000, 98.0
8.60000, 104.0
8.68000, 106.0
8.76000, 101.0
8.84000, 102.0
8.92000, 100.0
9.00000, 86.0
9.08000, 88.0
9.16000, 89.0
9.24000, 89.0
9.32000, 90.0
9.40000, 85.0
9.48000, 88.0
9.56000, 81.0
9.64000, 77.0
9.72000, 76.0
9.80000, 84.0
9.88000, 81.0
9.96000, 84.0
10.04000, 65.0
10.12000, 76.0
10.20000, 63.0
10.28000, 69.0
10.36000, 63.0
10.44000, 61.0
10.52000, 55.0
10.60000, 62.0
10.68000, 61.0
10.76000, 61.0
10.84000, 59.0
10.92000, 61.0
11.00000, 58.0
11.08000, 53.0
11.16000, 45.0
11.24000, 52.0
11.32000, 45.0
11.40000, 48.0
11.48000, 43.0
11.56000, 49.0
11.64000, 43.0
11.72000, 44.0
11.80000, 40.0
11.88000, 41.0
11.96000, 34.0
12.04000, 26.0
12.12000, 41.0
12.20000, 31.0
12.28000, 26.0
12.36000, 29.0
12.44000, 33.0
12.52000, 35.0
12.60000, 35.0
12.68000, 24.0
12.76000, 24.0
12.84000, 23.0
12.92000, 21.0
13.00000, 25.0
13.08000, 20.0
13.16000, 16.0
13.24000, 21.0
13.32000, 15.0
13.40000, 20.0
13.48000, 15.0
13.56000, 17.0
13.64000, 16.0
13.72000, 15.0
13.80000, 11.0
13.88000, 11.0
13.96000, 10.0
14.04000, 10.0
14.12000, 9.0
14.20000, 6.0
14.28000, 7.0
14.36000, 7.0
14.44000, 5.0
14.52000, 4.0
14.60000, 3.0
14.68000, 6.0
14.76000, 4.0
14.84000, 3.0
14.92000, 1.0
15.00000, 0.0
15.08000, 0.0
15.16000, 1.0
15.24000, 0.0
15.32000, 0.0
15.40000, 0.0
15.48000, 0.0
15.56000, 1.0
15.64000, 0.0
15.72000, 0.0
15.80000, 0.0
15.88000, 0.0
15.96000, 0.0
16.04000, 0.0
16.12000, 0.0
16.20000, 0.0
16.28000, 0.0
16.36000, 0.0
16.44000, 0.0
16.52000, 0.0
16.60000, 1.0
16.68000, 0.0
16.76000, 0.0
16.84000, 0.0
16.92000, 0.0
17.00000, 0.0
17.08000, 0.0
17.16000, 0.0
17.24000, 0.0
17.32000, 0.0
17.40000, 0.0
17.48000, 0.0
17.56000, 0.0
17.64000, 0.0
17.72000, 0.0
17.80000, 0.0
17.88000, 0.0
17.96000, 0.0
18.04000, 0.0
18.12000, 0.0
18.20000, 0.0
18.28000, 0.0
18.36000, 0.0
18.44000, 0.0
18.52000, 0.0
18.60000, 0.0
18.68000, 0.0
18.76000, 0.0
18.84000, 0.0
18.92000, 0.0
19.00000, 0.0
19.08000, 0.0
19.16000, 0.0
19.24000, 0.0
19.32000, 0.0
19.40000, 0.0
19.48000, 0.0
19.56000, 0.0
19.64000, 0.0
19.72000, 0.0
19.80000, 0.0
19.88000, 0.0
19.96000, 0.0
20.04000, 0.0
20.12000, 0.0
20.20000, 0.0
20.26000, 0.0
#ENDOFDATA   :