File: C10_12.txt
#FORMAT      : EMSA/MAS Spectral Data File
#VERSION     : 1.0
#TITLE       : Spectrum 7
#DATE        : 19-AUG-2024
#TIME        : 11:00
#OWNER       :
#NPOINTS     : 2048.0
#NCOLUMNS    : 1.0
#XUNITS      : keV
#YUNITS      : counts
#DATATYPE    : XY
#XPERCHAN    : 0.005
#OFFSET      : -0.1
#SIGNALTYPE  : EDS
#CHOFFSET    : 20.0
#LIVETIME    : 60.0174
#REALTIME    : 64.2999
#BEAMKV      : 10.0
#MAGCAM      : 1600.0
#XTILTSTGE   : 0.0
#AZIMANGLE   : 0.0
#ELEVANGLE   : 25.5
#XPOSITION mm: -0.3338
#YPOSITION mm: 0.6498
#ZPOSITION mm: 13.6215
##OXINSTPT   : 2
##OXINSTSTROB: 69.69
##OXINSTELEMS: 14,16,8,42,6
##OXINSTLABEL: 14, 1.740, Si K?1
##OXINSTLABEL: 16, 2.308, S K?1
##OXINSTLABEL: 16, 2.464, S K?1
##OXINSTLABEL: 8, 0.525, O K?1
##OXINSTLABEL: 42, 0.193, Mo M?
##OXINSTLABEL: 42, 2.016, Mo Ll
##OXINSTLABEL: 42, 2.120, Mo L?
##OXINSTLABEL: 42, 2.293, Mo L?1
##OXINSTLABEL: 42, 2.395, Mo L?1
##OXINSTLABEL: 42, 2.518, Mo L?2,15
##OXINSTLABEL: 42, 2.624, Mo L?1
##OXINSTLABEL: 42, 2.831, Mo L?2,3
##OXINSTLABEL: 6, 0.277, C K?1_2
#SPECTRUM    : Spectral Data Starts Here
-0.10000, 0.0
-0.06500, 3.0
-0.03000, 123.0
0.00500, 663.0
0.04000, 1238.0
0.07500, 930.0
0.11000, 841.0
0.14500, 1540.0
0.18000, 1474.0
0.21500, 809.0
0.25000, 513.0
0.28500, 413.0
0.32000, 224.0
0.35500, 186.0
0.39000, 192.0
0.42500, 307.0
0.46000, 537.0
0.49500, 1370.0
0.53000, 1853.0
0.56500, 1172.0
0.60000, 572.0
0.63500, 402.0
0.67000, 433.0
0.70500, 464.0
0.74000, 482.0
0.77500, 523.0
0.81000, 552.0
0.84500, 557.0
0.88000, 586.0
0.91500, 608.0
0.95000, 578.0
0.98500, 615.0
1.02000, 608.0
1.05500, 606.0
1.09000, 613.0
1.12500, 607.0
1.16000, 580.0
1.19500, 624.0
1.23000, 629.0
1.26500, 605.0
1.30000, 615.0
1.33500, 587.0
1.37000, 597.0
1.40500, 607.0
1.44000, 608.0
1.47500, 621.0
1.51000, 626.0
1.54500, 613.0
1.58000, 610.0
1.61500, 692.0
1.65000, 1748.0
1.68500, 6383.0
1.72000, 14302.0
1.75500, 16038.0
1.79000, 9193.0
1.82500, 3202.0
1.86000, 1263.0
1.89500, 688.0
1.93000, 484.0
1.96500, 501.0
2.00000, 577.0
2.03500, 621.0
2.07000, 531.0
2.10500, 478.0
2.14000, 470.0
2.17500, 621.0
2.21000, 1619.0
2.24500, 5086.0
2.28000, 10518.0
2.31500, 12518.0
2.35000, 8901.0
2.38500, 4864.0
2.42000, 2902.0
2.45500, 2089.0
2.49000, 1469.0
2.52500, 881.0
2.56000, 526.0
2.59500, 364.0
2.63000, 319.0
2.66500, 268.0
2.70000, 227.0
2.73500, 232.0
2.77000, 242.0
2.80500, 265.0
2.84000, 270.0
2.87500, 268.0
2.91000, 226.0
2.94500, 223.0
2.98000, 201.0
3.01500, 213.0
3.05000, 204.0
3.08500, 217.0
3.12000, 207.0
3.15500, 205.0
3.19000, 202.0
3.22500, 184.0
3.26000, 195.0
3.29500, 209.0
3.33000, 234.0
3.36500, 195.0
3.40000, 214.0
3.43500, 206.0
3.47000, 241.0
3.50500, 214.0
3.54000, 200.0
3.57500, 199.0
3.61000, 163.0
3.64500, 163.0
3.68000, 190.0
3.71500, 177.0
3.75000, 179.0
3.78500, 171.0
3.82000, 151.0
3.85500, 161.0
3.89000, 164.0
3.92500, 163.0
3.96000, 172.0
3.99500, 210.0
4.03000, 225.0
4.06500, 224.0
4.10000, 202.0
4.13500, 169.0
4.17000, 159.0
4.20500, 159.0
4.24000, 181.0
4.27500, 158.0
4.31000, 143.0
4.34500, 127.0
4.38000, 140.0
4.41500, 155.0
4.45000, 148.0
4.48500, 127.0
4.52000, 134.0
4.55500, 164.0
4.59000, 168.0
4.62500, 158.0
4.66000, 142.0
4.69500, 138.0
4.73000, 142.0
4.76500, 120.0
4.80000, 143.0
4.83500, 127.0
4.87000, 113.0
4.90500, 111.0
4.94000, 98.0
4.97500, 120.0
5.01000, 115.0
5.04500, 117.0
5.08000, 117.0
5.11500, 108.0
5.15000, 103.0
5.18500, 111.0
5.22000, 114.0
5.25500, 96.0
5.29000, 96.0
5.32500, 104.0
5.36000, 103.0
5.39500, 102.0
5.43000, 105.0
5.46500, 83.0
5.50000, 107.0
5.53500, 99.0
5.57000, 95.0
5.60500, 96.0
5.64000, 85.0
5.67500, 85.0
5.71000, 72.0
5.74500, 80.0
5.78000, 94.0
5.81500, 87.0
5.85000, 87.0
5.88500, 85.0
5.92000, 77.0
5.95500, 87.0
5.99000, 64.0
6.02500, 79.0
6.06000, 84.0
6.09500, 81.0
6.13000, 74.0
6.16500, 76.0
6.20000, 71.0
6.23500, 73.0
6.27000, 76.0
6.30500, 68.0
6.34000, 72.0
6.37500, 66.0
6.41000, 60.0
6.44500, 77.0
6.48000, 65.0
6.51500, 69.0
6.55000, 70.0
6.58500, 67.0
6.62000, 58.0
6.65500, 58.0
6.69000, 71.0
6.72500, 61.0
6.76000, 60.0
6.79500, 71.0
6.83000, 59.0
6.86500, 54.0
6.90000, 65.0
6.93500, 56.0
6.97000, 52.0
7.00500, 53.0
7.04000, 56.0
7.07500, 50.0
7.11000, 61.0
7.14500, 45.0
7.18000, 56.0
7.21500, 49.0
7.25000, 56.0
7.28500, 64.0
7.32000, 49.0
7.35500, 49.0
7.39000, 46.0
7.42500, 46.0
7.46000, 58.0
7.49500, 59.0
7.53000, 42.0
7.56500, 37.0
7.60000, 48.0
7.63500, 39.0
7.67000, 44.0
7.70500, 43.0
7.74000, 55.0
7.77500, 46.0
7.81000, 41.0
7.84500, 50.0
7.88000, 53.0
7.91500, 45.0
7.95000, 51.0
7.98500, 41.0
8.02000, 57.0
8.05500, 38.0
8.09000, 40.0
8.12500, 33.0
8.16000, 39.0
8.19500, 30.0
8.23000, 30.0
8.26500, 33.0
8.30000, 30.0
8.33500, 28.0
8.37000, 29.0
8.40500, 31.0
8.44000, 37.0
8.47500, 32.0
8.51000, 37.0
8.54500, 36.0
8.58000, 16.0
8.61500, 26.0
8.65000, 29.0
8.68500, 31.0
8.72000, 26.0
8.75500, 33.0
8.79000, 26.0
8.82500, 28.0
8.86000, 30.0
8.89500, 28.0
8.93000, 31.0
8.96500, 29.0
9.00000, 27.0
9.03500, 25.0
9.07000, 35.0
9.10500, 16.0
9.14000, 23.0
9.17500, 15.0
9.21000, 18.0
9.24500, 25.0
9.28000, 25.0
9.31500, 22.0
9.35000, 14.0
9.38500, 12.0
9.42000, 19.0
9.45500, 13.0
9.49000, 20.0
9.52500, 13.0
9.56000, 10.0
9.59500, 16.0
9.63000, 11.0
9.66500, 9.0
9.70000, 11.0
9.73500, 10.0
9.77000, 6.0
9.80500, 9.0
9.84000, 6.0
9.87500, 5.0
9.91000, 5.0
9.94500, 5.0
9.98000, 9.0
10.01500, 2.0
10.05000, 3.0
10.08500, 0.0
10.12000, 1.0
10.13500, 2.0
#ENDOFDATA   :