File: C10_15keV_10.1.txt
#FORMAT      : EMSA/MAS Spectral Data File
#VERSION     : 1.0
#TITLE       : C10_15keV_10.1
#DATE        : 04-JUL-2024
#TIME        : 09:11
#OWNER       :
#NPOINTS     : 1024.0
#NCOLUMNS    : 1.0
#XUNITS      : keV
#YUNITS      : counts
#DATATYPE    : XY
#XPERCHAN    : 0.02
#OFFSET      : -0.2
#SIGNALTYPE  : EDS
#CHOFFSET    : 10.0
#LIVETIME    : 120.29
#REALTIME    : 122.715
#BEAMKV      : 15.0
#MAGCAM      : 950.0
#XTILTSTGE   : 0.0
#AZIMANGLE   : 0.0
#ELEVANGLE   : 25.5
#XPOSITION mm: 0.1488
#YPOSITION mm: -0.9268
#ZPOSITION mm: 14.7047
##OXINSTPT   : 2
##OXINSTSTROB: 69.68
##OXINSTELEMS: 6,8,16,29,7,15,9
##OXINSTLABEL: 6, 0.277, C K?1_2
##OXINSTLABEL: 8, 0.525, O K?1
##OXINSTLABEL: 16, 2.308, S K?1
##OXINSTLABEL: 16, 2.464, S K?1
##OXINSTLABEL: 29, 8.048, Cu K?1
##OXINSTLABEL: 29, 8.905, Cu K?1
##OXINSTLABEL: 29, 0.930, Cu L?1,2
##OXINSTLABEL: 29, 0.832, Cu L?
##OXINSTLABEL: 29, 0.811, Cu Ll
##OXINSTLABEL: 7, 0.392, N K?1_2
##OXINSTLABEL: 15, 2.014, P K?1
##OXINSTLABEL: 15, 2.139, P K?1
##OXINSTLABEL: 9, 0.677, F K?1_2
#SPECTRUM    : Spectral Data Starts Here
-0.20000, 0.0
-0.12000, 0.0
-0.04000, 518.0
0.04000, 10233.0
0.12000, 1152.0
0.20000, 552.0
0.28000, 1066.0
0.36000, 189.0
0.44000, 416.0
0.52000, 2847.0
0.60000, 491.0
0.68000, 251.0
0.76000, 323.0
0.84000, 386.0
0.92000, 436.0
1.00000, 517.0
1.08000, 586.0
1.16000, 571.0
1.24000, 641.0
1.32000, 669.0
1.40000, 680.0
1.48000, 780.0
1.56000, 869.0
1.64000, 3760.0
1.72000, 50521.0
1.80000, 24544.0
1.88000, 2005.0
1.96000, 355.0
2.04000, 358.0
2.12000, 314.0
2.20000, 578.0
2.28000, 3374.0
2.36000, 2481.0
2.44000, 902.0
2.52000, 451.0
2.60000, 275.0
2.68000, 237.0
2.76000, 241.0
2.84000, 261.0
2.92000, 234.0
3.00000, 216.0
3.08000, 239.0
3.16000, 225.0
3.24000, 234.0
3.32000, 225.0
3.40000, 222.0
3.48000, 270.0
3.56000, 231.0
3.64000, 187.0
3.72000, 216.0
3.80000, 178.0
3.88000, 189.0
3.96000, 185.0
4.04000, 186.0
4.12000, 182.0
4.20000, 165.0
4.28000, 161.0
4.36000, 164.0
4.44000, 165.0
4.52000, 155.0
4.60000, 148.0
4.68000, 136.0
4.76000, 153.0
4.84000, 145.0
4.92000, 141.0
5.00000, 132.0
5.08000, 150.0
5.16000, 132.0
5.24000, 117.0
5.32000, 115.0
5.40000, 125.0
5.48000, 132.0
5.56000, 117.0
5.64000, 125.0
5.72000, 101.0
5.80000, 100.0
5.88000, 100.0
5.96000, 98.0
6.04000, 103.0
6.12000, 94.0
6.20000, 96.0
6.28000, 104.0
6.36000, 85.0
6.44000, 94.0
6.52000, 79.0
6.60000, 88.0
6.68000, 83.0
6.76000, 78.0
6.84000, 77.0
6.92000, 82.0
7.00000, 70.0
7.08000, 75.0
7.16000, 65.0
7.24000, 72.0
7.32000, 66.0
7.40000, 61.0
7.48000, 66.0
7.56000, 56.0
7.64000, 56.0
7.72000, 66.0
7.80000, 55.0
7.88000, 58.0
7.96000, 62.0
8.04000, 51.0
8.12000, 55.0
8.20000, 56.0
8.28000, 57.0
8.36000, 62.0
8.44000, 56.0
8.52000, 51.0
8.60000, 41.0
8.68000, 43.0
8.76000, 52.0
8.84000, 50.0
8.92000, 46.0
9.00000, 43.0
9.08000, 53.0
9.16000, 40.0
9.24000, 44.0
9.32000, 43.0
9.40000, 38.0
9.48000, 29.0
9.56000, 36.0
9.64000, 39.0
9.72000, 34.0
9.80000, 38.0
9.88000, 27.0
9.96000, 33.0
10.04000, 29.0
10.12000, 27.0
10.20000, 32.0
10.28000, 29.0
10.36000, 35.0
10.44000, 23.0
10.52000, 26.0
10.60000, 32.0
10.68000, 23.0
10.76000, 21.0
10.84000, 26.0
10.92000, 16.0
11.00000, 24.0
11.08000, 22.0
11.16000, 22.0
11.24000, 22.0
11.32000, 18.0
11.40000, 18.0
11.48000, 18.0
11.56000, 17.0
11.64000, 20.0
11.72000, 15.0
11.80000, 16.0
11.88000, 14.0
11.96000, 10.0
12.04000, 12.0
12.12000, 12.0
12.20000, 10.0
12.28000, 13.0
12.36000, 14.0
12.44000, 13.0
12.52000, 11.0
12.60000, 7.0
12.68000, 8.0
12.76000, 8.0
12.84000, 9.0
12.92000, 8.0
13.00000, 11.0
13.08000, 7.0
13.16000, 8.0
13.24000, 6.0
13.32000, 7.0
13.40000, 13.0
13.48000, 8.0
13.56000, 7.0
13.64000, 5.0
13.72000, 3.0
13.80000, 7.0
13.88000, 4.0
13.96000, 7.0
14.04000, 3.0
14.12000, 5.0
14.20000, 2.0
14.28000, 3.0
14.36000, 6.0
14.44000, 2.0
14.52000, 2.0
14.60000, 1.0
14.68000, 1.0
14.76000, 1.0
14.84000, 2.0
14.92000, 4.0
15.00000, 0.0
15.08000, 1.0
15.16000, 0.0
15.24000, 1.0
15.32000, 0.0
15.40000, 0.0
15.48000, 0.0
15.56000, 0.0
15.64000, 0.0
15.72000, 0.0
15.80000, 0.0
15.88000, 0.0
15.96000, 0.0
16.04000, 0.0
16.12000, 0.0
16.20000, 0.0
16.28000, 0.0
16.36000, 0.0
16.44000, 0.0
16.52000, 0.0
16.60000, 0.0
16.68000, 0.0
16.76000, 0.0
16.84000, 0.0
16.92000, 0.0
17.00000, 0.0
17.08000, 0.0
17.16000, 0.0
17.24000, 0.0
17.32000, 0.0
17.40000, 0.0
17.48000, 0.0
17.56000, 0.0
17.64000, 0.0
17.72000, 0.0
17.80000, 0.0
17.88000, 0.0
17.96000, 0.0
18.04000, 0.0
18.12000, 0.0
18.20000, 0.0
18.28000, 0.0
18.36000, 0.0
18.44000, 0.0
18.52000, 0.0
18.60000, 0.0
18.68000, 0.0
18.76000, 0.0
18.84000, 0.0
18.92000, 0.0
19.00000, 0.0
19.08000, 0.0
19.16000, 0.0
19.24000, 0.0
19.32000, 0.0
19.40000, 0.0
19.48000, 0.0
19.56000, 0.0
19.64000, 0.0
19.72000, 0.0
19.80000, 0.0
19.88000, 0.0
19.96000, 0.0
20.04000, 0.0
20.12000, 0.0
20.20000, 0.0
20.26000, 0.0
#ENDOFDATA   :