File: N15_15keV_10_02.txt
#FORMAT      : EMSA/MAS Spectral Data File
#VERSION     : 1.0
#TITLE       : N15_15keV_10_02
#DATE        : 04-JUL-2024
#TIME        : 10:20
#OWNER       :
#NPOINTS     : 1024.0
#NCOLUMNS    : 1.0
#XUNITS      : keV
#YUNITS      : counts
#DATATYPE    : XY
#XPERCHAN    : 0.02
#OFFSET      : -0.2
#SIGNALTYPE  : EDS
#CHOFFSET    : 10.0
#LIVETIME    : 120.418
#REALTIME    : 122.716
#BEAMKV      : 15.0
#MAGCAM      : 700.0
#XTILTSTGE   : 0.0
#AZIMANGLE   : 0.0
#ELEVANGLE   : 25.5
#XPOSITION mm: 0.0643
#YPOSITION mm: 2.1078
#ZPOSITION mm: 14.6339
##OXINSTPT   : 2
##OXINSTSTROB: 69.69
##OXINSTELEMS: 6,8,16,29,7,15,9
##OXINSTLABEL: 6, 0.277, C K?1_2
##OXINSTLABEL: 8, 0.525, O K?1
##OXINSTLABEL: 16, 2.308, S K?1
##OXINSTLABEL: 16, 2.464, S K?1
##OXINSTLABEL: 29, 8.048, Cu K?1
##OXINSTLABEL: 29, 8.905, Cu K?1
##OXINSTLABEL: 29, 0.930, Cu L?1,2
##OXINSTLABEL: 29, 0.832, Cu L?
##OXINSTLABEL: 29, 0.811, Cu Ll
##OXINSTLABEL: 7, 0.392, N K?1_2
##OXINSTLABEL: 15, 2.014, P K?1
##OXINSTLABEL: 15, 2.139, P K?1
##OXINSTLABEL: 9, 0.677, F K?1_2
#SPECTRUM    : Spectral Data Starts Here
-0.20000, 0.0
-0.12000, 0.0
-0.04000, 546.0
0.04000, 10315.0
0.12000, 1408.0
0.20000, 629.0
0.28000, 461.0
0.36000, 124.0
0.44000, 244.0
0.52000, 1143.0
0.60000, 390.0
0.68000, 320.0
0.76000, 365.0
0.84000, 415.0
0.92000, 473.0
1.00000, 513.0
1.08000, 566.0
1.16000, 595.0
1.24000, 647.0
1.32000, 661.0
1.40000, 693.0
1.48000, 731.0
1.56000, 788.0
1.64000, 2988.0
1.72000, 39724.0
1.80000, 19544.0
1.88000, 1663.0
1.96000, 423.0
2.04000, 468.0
2.12000, 417.0
2.20000, 1017.0
2.28000, 7420.0
2.36000, 5362.0
2.44000, 1724.0
2.52000, 745.0
2.60000, 317.0
2.68000, 263.0
2.76000, 246.0
2.84000, 270.0
2.92000, 250.0
3.00000, 200.0
3.08000, 235.0
3.16000, 231.0
3.24000, 225.0
3.32000, 206.0
3.40000, 216.0
3.48000, 241.0
3.56000, 236.0
3.64000, 199.0
3.72000, 213.0
3.80000, 197.0
3.88000, 184.0
3.96000, 183.0
4.04000, 215.0
4.12000, 184.0
4.20000, 182.0
4.28000, 169.0
4.36000, 169.0
4.44000, 152.0
4.52000, 151.0
4.60000, 168.0
4.68000, 158.0
4.76000, 166.0
4.84000, 165.0
4.92000, 150.0
5.00000, 136.0
5.08000, 148.0
5.16000, 138.0
5.24000, 147.0
5.32000, 117.0
5.40000, 135.0
5.48000, 124.0
5.56000, 126.0
5.64000, 118.0
5.72000, 117.0
5.80000, 91.0
5.88000, 111.0
5.96000, 86.0
6.04000, 111.0
6.12000, 88.0
6.20000, 104.0
6.28000, 92.0
6.36000, 110.0
6.44000, 90.0
6.52000, 92.0
6.60000, 90.0
6.68000, 92.0
6.76000, 83.0
6.84000, 84.0
6.92000, 82.0
7.00000, 85.0
7.08000, 71.0
7.16000, 88.0
7.24000, 79.0
7.32000, 66.0
7.40000, 87.0
7.48000, 68.0
7.56000, 68.0
7.64000, 75.0
7.72000, 66.0
7.80000, 62.0
7.88000, 65.0
7.96000, 73.0
8.04000, 70.0
8.12000, 51.0
8.20000, 54.0
8.28000, 66.0
8.36000, 64.0
8.44000, 58.0
8.52000, 51.0
8.60000, 53.0
8.68000, 49.0
8.76000, 54.0
8.84000, 56.0
8.92000, 53.0
9.00000, 41.0
9.08000, 48.0
9.16000, 40.0
9.24000, 52.0
9.32000, 44.0
9.40000, 40.0
9.48000, 43.0
9.56000, 44.0
9.64000, 38.0
9.72000, 31.0
9.80000, 44.0
9.88000, 43.0
9.96000, 28.0
10.04000, 33.0
10.12000, 33.0
10.20000, 44.0
10.28000, 34.0
10.36000, 38.0
10.44000, 32.0
10.52000, 37.0
10.60000, 34.0
10.68000, 30.0
10.76000, 27.0
10.84000, 30.0
10.92000, 24.0
11.00000, 34.0
11.08000, 26.0
11.16000, 21.0
11.24000, 22.0
11.32000, 20.0
11.40000, 24.0
11.48000, 18.0
11.56000, 29.0
11.64000, 20.0
11.72000, 20.0
11.80000, 19.0
11.88000, 26.0
11.96000, 13.0
12.04000, 25.0
12.12000, 19.0
12.20000, 19.0
12.28000, 12.0
12.36000, 21.0
12.44000, 14.0
12.52000, 14.0
12.60000, 16.0
12.68000, 15.0
12.76000, 20.0
12.84000, 11.0
12.92000, 12.0
13.00000, 9.0
13.08000, 12.0
13.16000, 13.0
13.24000, 18.0
13.32000, 11.0
13.40000, 10.0
13.48000, 10.0
13.56000, 8.0
13.64000, 8.0
13.72000, 11.0
13.80000, 6.0
13.88000, 6.0
13.96000, 7.0
14.04000, 7.0
14.12000, 7.0
14.20000, 8.0
14.28000, 8.0
14.36000, 4.0
14.44000, 4.0
14.52000, 5.0
14.60000, 3.0
14.68000, 2.0
14.76000, 3.0
14.84000, 0.0
14.92000, 0.0
15.00000, 1.0
15.08000, 0.0
15.16000, 0.0
15.24000, 0.0
15.32000, 0.0
15.40000, 0.0
15.48000, 0.0
15.56000, 0.0
15.64000, 0.0
15.72000, 0.0
15.80000, 0.0
15.88000, 0.0
15.96000, 0.0
16.04000, 0.0
16.12000, 0.0
16.20000, 0.0
16.28000, 0.0
16.36000, 0.0
16.44000, 0.0
16.52000, 0.0
16.60000, 0.0
16.68000, 0.0
16.76000, 0.0
16.84000, 0.0
16.92000, 0.0
17.00000, 0.0
17.08000, 0.0
17.16000, 0.0
17.24000, 0.0
17.32000, 0.0
17.40000, 0.0
17.48000, 0.0
17.56000, 0.0
17.64000, 0.0
17.72000, 0.0
17.80000, 0.0
17.88000, 0.0
17.96000, 0.0
18.04000, 0.0
18.12000, 0.0
18.20000, 0.0
18.28000, 0.0
18.36000, 0.0
18.44000, 0.0
18.52000, 0.0
18.60000, 0.0
18.68000, 0.0
18.76000, 0.0
18.84000, 0.0
18.92000, 0.0
19.00000, 0.0
19.08000, 0.0
19.16000, 0.0
19.24000, 0.0
19.32000, 0.0
19.40000, 0.0
19.48000, 0.0
19.56000, 0.0
19.64000, 0.0
19.72000, 0.0
19.80000, 0.0
19.88000, 0.0
19.96000, 0.0
20.04000, 0.0
20.12000, 0.0
20.20000, 0.0
20.26000, 0.0
#ENDOFDATA   :