File: Spectrum 6.txt
#FORMAT      : EMSA/MAS Spectral Data File
#VERSION     : 1.0
#TITLE       : Spectrum 6
#DATE        : 11-JUL-2024
#TIME        : 15:36
#OWNER       :
#NPOINTS     : 1024.0
#NCOLUMNS    : 1.0
#XUNITS      : keV
#YUNITS      : counts
#DATATYPE    : XY
#XPERCHAN    : 0.02
#OFFSET      : -0.2
#SIGNALTYPE  : EDS
#CHOFFSET    : 10.0
#LIVETIME    : 60.021
#REALTIME    : 60.7907
#BEAMKV      : 15.0
#MAGCAM      : 450.0
#XTILTSTGE   : 0.0
#AZIMANGLE   : 0.0
#ELEVANGLE   : 25.5
#XPOSITION mm: -2.3380
#YPOSITION mm: -0.2523
#ZPOSITION mm: 13.9967
##OXINSTPT   : 2
##OXINSTSTROB: 69.73
##OXINSTELEMS: 6,8,29,79,78,14
##OXINSTLABEL: 6, 0.277, C K?1_2
##OXINSTLABEL: 8, 0.525, O K?1
##OXINSTLABEL: 29, 8.048, Cu K?1
##OXINSTLABEL: 29, 8.905, Cu K?1
##OXINSTLABEL: 29, 0.930, Cu L?1,2
##OXINSTLABEL: 29, 0.832, Cu L?
##OXINSTLABEL: 29, 0.811, Cu Ll
##OXINSTLABEL: 79, 9.713, Au L?1
##OXINSTLABEL: 79, 11.443, Au L?1
##OXINSTLABEL: 79, 11.585, Au L?2
##OXINSTLABEL: 79, 10.308, Au L?
##OXINSTLABEL: 79, 13.382, Au L?1
##OXINSTLABEL: 79, 13.710, Au L?2
##OXINSTLABEL: 79, 8.494, Au Ll
##OXINSTLABEL: 79, 2.123, Au M?1
##OXINSTLABEL: 79, 2.410, Au M?
##OXINSTLABEL: 79, 1.648, Au M?2
##OXINSTLABEL: 79, 0.265, Au N4-N6
##OXINSTLABEL: 79, 0.251, Au N5-N6,7
##OXINSTLABEL: 78, 9.442, Pt L?1
##OXINSTLABEL: 78, 11.071, Pt L?1
##OXINSTLABEL: 78, 11.251, Pt L?2
##OXINSTLABEL: 78, 9.975, Pt L?
##OXINSTLABEL: 78, 12.942, Pt L?1
##OXINSTLABEL: 78, 13.271, Pt L?2
##OXINSTLABEL: 78, 8.268, Pt Ll
##OXINSTLABEL: 78, 2.050, Pt M?1
##OXINSTLABEL: 78, 2.331, Pt M?
##OXINSTLABEL: 78, 1.592, Pt M?2
##OXINSTLABEL: 78, 0.258, Pt N4-N6
##OXINSTLABEL: 78, 0.244, Pt N5-N6,7
##OXINSTLABEL: 14, 1.740, Si K?1
#SPECTRUM    : Spectral Data Starts Here
-0.20000, 0.0
-0.12000, 0.0
-0.04000, 230.0
0.04000, 5056.0
0.12000, 596.0
0.20000, 206.0
0.28000, 102.0
0.36000, 34.0
0.44000, 47.0
0.52000, 171.0
0.60000, 111.0
0.68000, 98.0
0.76000, 97.0
0.84000, 114.0
0.92000, 128.0
1.00000, 154.0
1.08000, 161.0
1.16000, 187.0
1.24000, 175.0
1.32000, 180.0
1.40000, 191.0
1.48000, 227.0
1.56000, 211.0
1.64000, 716.0
1.72000, 8691.0
1.80000, 4262.0
1.88000, 431.0
1.96000, 146.0
2.04000, 181.0
2.12000, 146.0
2.20000, 411.0
2.28000, 3479.0
2.36000, 2587.0
2.44000, 794.0
2.52000, 319.0
2.60000, 130.0
2.68000, 85.0
2.76000, 72.0
2.84000, 85.0
2.92000, 71.0
3.00000, 74.0
3.08000, 64.0
3.16000, 58.0
3.24000, 68.0
3.32000, 61.0
3.40000, 67.0
3.48000, 75.0
3.56000, 67.0
3.64000, 58.0
3.72000, 66.0
3.80000, 62.0
3.88000, 48.0
3.96000, 60.0
4.04000, 61.0
4.12000, 50.0
4.20000, 55.0
4.28000, 50.0
4.36000, 46.0
4.44000, 52.0
4.52000, 55.0
4.60000, 45.0
4.68000, 45.0
4.76000, 49.0
4.84000, 47.0
4.92000, 47.0
5.00000, 49.0
5.08000, 48.0
5.16000, 48.0
5.24000, 40.0
5.32000, 42.0
5.40000, 34.0
5.48000, 43.0
5.56000, 36.0
5.64000, 38.0
5.72000, 32.0
5.80000, 38.0
5.88000, 37.0
5.96000, 35.0
6.04000, 33.0
6.12000, 33.0
6.20000, 35.0
6.28000, 30.0
6.36000, 27.0
6.44000, 32.0
6.52000, 37.0
6.60000, 23.0
6.68000, 27.0
6.76000, 34.0
6.84000, 25.0
6.92000, 20.0
7.00000, 29.0
7.08000, 23.0
7.16000, 29.0
7.24000, 18.0
7.32000, 28.0
7.40000, 28.0
7.48000, 22.0
7.56000, 24.0
7.64000, 24.0
7.72000, 19.0
7.80000, 18.0
7.88000, 20.0
7.96000, 20.0
8.04000, 16.0
8.12000, 21.0
8.20000, 18.0
8.28000, 21.0
8.36000, 16.0
8.44000, 23.0
8.52000, 17.0
8.60000, 20.0
8.68000, 17.0
8.76000, 15.0
8.84000, 16.0
8.92000, 21.0
9.00000, 17.0
9.08000, 18.0
9.16000, 14.0
9.24000, 15.0
9.32000, 13.0
9.40000, 17.0
9.48000, 15.0
9.56000, 11.0
9.64000, 16.0
9.72000, 14.0
9.80000, 12.0
9.88000, 19.0
9.96000, 12.0
10.04000, 13.0
10.12000, 8.0
10.20000, 11.0
10.28000, 13.0
10.36000, 9.0
10.44000, 13.0
10.52000, 9.0
10.60000, 14.0
10.68000, 10.0
10.76000, 8.0
10.84000, 10.0
10.92000, 7.0
11.00000, 10.0
11.08000, 4.0
11.16000, 10.0
11.24000, 5.0
11.32000, 10.0
11.40000, 4.0
11.48000, 7.0
11.56000, 7.0
11.64000, 8.0
11.72000, 8.0
11.80000, 8.0
11.88000, 8.0
11.96000, 5.0
12.04000, 6.0
12.12000, 6.0
12.20000, 8.0
12.28000, 11.0
12.36000, 6.0
12.44000, 6.0
12.52000, 5.0
12.60000, 5.0
12.68000, 2.0
12.76000, 6.0
12.84000, 8.0
12.92000, 6.0
13.00000, 3.0
13.08000, 5.0
13.16000, 4.0
13.24000, 3.0
13.32000, 3.0
13.40000, 1.0
13.48000, 2.0
13.56000, 2.0
13.64000, 1.0
13.72000, 4.0
13.80000, 6.0
13.88000, 2.0
13.96000, 3.0
14.04000, 2.0
14.12000, 2.0
14.20000, 2.0
14.28000, 5.0
14.36000, 1.0
14.44000, 2.0
14.52000, 2.0
14.60000, 1.0
14.68000, 0.0
14.76000, 0.0
14.84000, 1.0
14.92000, 1.0
15.00000, 1.0
15.08000, 0.0
15.16000, 0.0
15.24000, 0.0
15.32000, 0.0
15.40000, 0.0
15.48000, 0.0
15.56000, 0.0
15.64000, 0.0
15.72000, 0.0
15.80000, 0.0
15.88000, 0.0
15.96000, 0.0
16.04000, 0.0
16.12000, 0.0
16.20000, 0.0
16.28000, 0.0
16.36000, 0.0
16.44000, 0.0
16.52000, 0.0
16.60000, 0.0
16.68000, 0.0
16.76000, 0.0
16.84000, 0.0
16.92000, 0.0
17.00000, 0.0
17.08000, 0.0
17.16000, 0.0
17.24000, 0.0
17.32000, 0.0
17.40000, 0.0
17.48000, 0.0
17.56000, 0.0
17.64000, 0.0
17.72000, 0.0
17.80000, 0.0
17.88000, 0.0
17.96000, 0.0
18.04000, 0.0
18.12000, 0.0
18.20000, 0.0
18.28000, 0.0
18.36000, 0.0
18.44000, 0.0
18.52000, 0.0
18.60000, 0.0
18.68000, 0.0
18.76000, 0.0
18.84000, 0.0
18.92000, 0.0
19.00000, 0.0
19.08000, 0.0
19.16000, 0.0
19.24000, 0.0
19.32000, 0.0
19.40000, 0.0
19.48000, 0.0
19.56000, 0.0
19.64000, 0.0
19.72000, 0.0
19.80000, 0.0
19.88000, 0.0
19.96000, 0.0
20.04000, 0.0
20.12000, 0.0
20.20000, 0.0
20.26000, 0.0
#ENDOFDATA   :