File: Thick 1/A10_15keV_10.txt
#FORMAT      : EMSA/MAS Spectral Data File
#VERSION     : 1.0
#TITLE       : A10_15keV_10
#DATE        : 04-JUL-2024
#TIME        : 10:25
#OWNER       :
#NPOINTS     : 1024.0
#NCOLUMNS    : 1.0
#XUNITS      : keV
#YUNITS      : counts
#DATATYPE    : XY
#XPERCHAN    : 0.02
#OFFSET      : -0.2
#SIGNALTYPE  : EDS
#CHOFFSET    : 10.0
#LIVETIME    : 120.335
#REALTIME    : 122.805
#BEAMKV      : 15.0
#MAGCAM      : 220.0
#XTILTSTGE   : 0.0
#AZIMANGLE   : 0.0
#ELEVANGLE   : 25.5
#XPOSITION mm: -0.1828
#YPOSITION mm: -1.1990
#ZPOSITION mm: 14.6374
##OXINSTPT   : 2
##OXINSTSTROB: 69.74
##OXINSTELEMS: 6,8,16,29,7,15,9
##OXINSTLABEL: 6, 0.277, C K?1_2
##OXINSTLABEL: 8, 0.525, O K?1
##OXINSTLABEL: 16, 2.308, S K?1
##OXINSTLABEL: 16, 2.464, S K?1
##OXINSTLABEL: 29, 8.048, Cu K?1
##OXINSTLABEL: 29, 8.905, Cu K?1
##OXINSTLABEL: 29, 0.930, Cu L?1,2
##OXINSTLABEL: 29, 0.832, Cu L?
##OXINSTLABEL: 29, 0.811, Cu Ll
##OXINSTLABEL: 7, 0.392, N K?1_2
##OXINSTLABEL: 15, 2.014, P K?1
##OXINSTLABEL: 15, 2.139, P K?1
##OXINSTLABEL: 9, 0.677, F K?1_2
#SPECTRUM    : Spectral Data Starts Here
-0.20000, 0.0
-0.12000, 0.0
-0.04000, 552.0
0.04000, 10209.0
0.12000, 1942.0
0.20000, 1016.0
0.28000, 464.0
0.36000, 154.0
0.44000, 238.0
0.52000, 710.0
0.60000, 780.0
0.68000, 468.0
0.76000, 511.0
0.84000, 558.0
0.92000, 671.0
1.00000, 697.0
1.08000, 821.0
1.16000, 838.0
1.24000, 842.0
1.32000, 857.0
1.40000, 885.0
1.48000, 897.0
1.56000, 893.0
1.64000, 989.0
1.72000, 3615.0
1.80000, 2171.0
1.88000, 922.0
1.96000, 1066.0
2.04000, 1384.0
2.12000, 1085.0
2.20000, 3784.0
2.28000, 34239.0
2.36000, 24866.0
2.44000, 7502.0
2.52000, 2492.0
2.60000, 689.0
2.68000, 410.0
2.76000, 347.0
2.84000, 439.0
2.92000, 383.0
3.00000, 324.0
3.08000, 349.0
3.16000, 330.0
3.24000, 301.0
3.32000, 328.0
3.40000, 312.0
3.48000, 331.0
3.56000, 307.0
3.64000, 303.0
3.72000, 303.0
3.80000, 290.0
3.88000, 301.0
3.96000, 316.0
4.04000, 301.0
4.12000, 287.0
4.20000, 282.0
4.28000, 293.0
4.36000, 284.0
4.44000, 257.0
4.52000, 285.0
4.60000, 281.0
4.68000, 268.0
4.76000, 262.0
4.84000, 242.0
4.92000, 241.0
5.00000, 258.0
5.08000, 240.0
5.16000, 206.0
5.24000, 223.0
5.32000, 228.0
5.40000, 231.0
5.48000, 215.0
5.56000, 214.0
5.64000, 216.0
5.72000, 216.0
5.80000, 206.0
5.88000, 192.0
5.96000, 182.0
6.04000, 205.0
6.12000, 174.0
6.20000, 182.0
6.28000, 159.0
6.36000, 191.0
6.44000, 183.0
6.52000, 172.0
6.60000, 167.0
6.68000, 168.0
6.76000, 160.0
6.84000, 156.0
6.92000, 149.0
7.00000, 159.0
7.08000, 137.0
7.16000, 166.0
7.24000, 145.0
7.32000, 139.0
7.40000, 138.0
7.48000, 130.0
7.56000, 128.0
7.64000, 122.0
7.72000, 130.0
7.80000, 126.0
7.88000, 129.0
7.96000, 119.0
8.04000, 123.0
8.12000, 112.0
8.20000, 128.0
8.28000, 104.0
8.36000, 111.0
8.44000, 104.0
8.52000, 103.0
8.60000, 107.0
8.68000, 108.0
8.76000, 90.0
8.84000, 100.0
8.92000, 92.0
9.00000, 90.0
9.08000, 93.0
9.16000, 93.0
9.24000, 85.0
9.32000, 89.0
9.40000, 92.0
9.48000, 80.0
9.56000, 80.0
9.64000, 82.0
9.72000, 74.0
9.80000, 74.0
9.88000, 78.0
9.96000, 85.0
10.04000, 71.0
10.12000, 65.0
10.20000, 71.0
10.28000, 76.0
10.36000, 65.0
10.44000, 62.0
10.52000, 53.0
10.60000, 52.0
10.68000, 56.0
10.76000, 54.0
10.84000, 49.0
10.92000, 57.0
11.00000, 63.0
11.08000, 49.0
11.16000, 58.0
11.24000, 54.0
11.32000, 43.0
11.40000, 38.0
11.48000, 50.0
11.56000, 45.0
11.64000, 47.0
11.72000, 49.0
11.80000, 39.0
11.88000, 39.0
11.96000, 39.0
12.04000, 38.0
12.12000, 41.0
12.20000, 30.0
12.28000, 29.0
12.36000, 26.0
12.44000, 32.0
12.52000, 32.0
12.60000, 31.0
12.68000, 17.0
12.76000, 28.0
12.84000, 28.0
12.92000, 23.0
13.00000, 24.0
13.08000, 20.0
13.16000, 20.0
13.24000, 21.0
13.32000, 18.0
13.40000, 18.0
13.48000, 16.0
13.56000, 17.0
13.64000, 16.0
13.72000, 9.0
13.80000, 13.0
13.88000, 10.0
13.96000, 12.0
14.04000, 6.0
14.12000, 6.0
14.20000, 6.0
14.28000, 6.0
14.36000, 7.0
14.44000, 6.0
14.52000, 6.0
14.60000, 3.0
14.68000, 4.0
14.76000, 2.0
14.84000, 4.0
14.92000, 1.0
15.00000, 0.0
15.08000, 0.0
15.16000, 0.0
15.24000, 0.0
15.32000, 0.0
15.40000, 0.0
15.48000, 0.0
15.56000, 0.0
15.64000, 0.0
15.72000, 0.0
15.80000, 0.0
15.88000, 0.0
15.96000, 0.0
16.04000, 0.0
16.12000, 0.0
16.20000, 0.0
16.28000, 0.0
16.36000, 0.0
16.44000, 0.0
16.52000, 0.0
16.60000, 0.0
16.68000, 0.0
16.76000, 0.0
16.84000, 0.0
16.92000, 0.0
17.00000, 0.0
17.08000, 0.0
17.16000, 0.0
17.24000, 0.0
17.32000, 0.0
17.40000, 0.0
17.48000, 1.0
17.56000, 0.0
17.64000, 0.0
17.72000, 0.0
17.80000, 0.0
17.88000, 0.0
17.96000, 0.0
18.04000, 0.0
18.12000, 0.0
18.20000, 0.0
18.28000, 0.0
18.36000, 0.0
18.44000, 0.0
18.52000, 0.0
18.60000, 0.0
18.68000, 0.0
18.76000, 0.0
18.84000, 0.0
18.92000, 0.0
19.00000, 0.0
19.08000, 0.0
19.16000, 0.0
19.24000, 0.0
19.32000, 0.0
19.40000, 0.0
19.48000, 0.0
19.56000, 0.0
19.64000, 0.0
19.72000, 0.0
19.80000, 0.0
19.88000, 0.0
19.96000, 0.0
20.04000, 0.0
20.12000, 0.0
20.20000, 0.0
20.26000, 0.0
#ENDOFDATA   :