File: Thick 1/C10_15keV_10.txt
#FORMAT      : EMSA/MAS Spectral Data File
#VERSION     : 1.0
#TITLE       : C10_15keV_10
#DATE        : 04-JUL-2024
#TIME        : 09:18
#OWNER       :
#NPOINTS     : 1024.0
#NCOLUMNS    : 1.0
#XUNITS      : keV
#YUNITS      : counts
#DATATYPE    : XY
#XPERCHAN    : 0.02
#OFFSET      : -0.2
#SIGNALTYPE  : EDS
#CHOFFSET    : 10.0
#LIVETIME    : 119.998
#REALTIME    : 122.417
#BEAMKV      : 15.0
#MAGCAM      : 4300.0
#XTILTSTGE   : 0.0
#AZIMANGLE   : 0.0
#ELEVANGLE   : 25.5
#XPOSITION mm: 0.1598
#YPOSITION mm: -0.9510
#ZPOSITION mm: 14.6072
##OXINSTPT   : 2
##OXINSTSTROB: 69.71
##OXINSTELEMS: 8,16,14,42
##OXINSTLABEL: 8, 0.525, O K?1
##OXINSTLABEL: 16, 2.308, S K?1
##OXINSTLABEL: 16, 2.464, S K?1
##OXINSTLABEL: 14, 1.740, Si K?1
##OXINSTLABEL: 42, 0.193, Mo M?
##OXINSTLABEL: 42, 2.016, Mo Ll
##OXINSTLABEL: 42, 2.120, Mo L?
##OXINSTLABEL: 42, 2.293, Mo L?1
##OXINSTLABEL: 42, 2.395, Mo L?1
##OXINSTLABEL: 42, 2.518, Mo L?2,15
##OXINSTLABEL: 42, 2.624, Mo L?1
##OXINSTLABEL: 42, 2.831, Mo L?2,3
##OXINSTLABEL: 42, 17.375, Mo K?2
##OXINSTLABEL: 42, 17.480, Mo K?1
##OXINSTLABEL: 42, 19.609, Mo K?1
##OXINSTLABEL: 42, 19.965, Mo K?2
#SPECTRUM    : Spectral Data Starts Here
-0.20000, 0.0
-0.12000, 0.0
-0.04000, 535.0
0.04000, 10137.0
0.12000, 1191.0
0.20000, 533.0
0.28000, 1099.0
0.36000, 206.0
0.44000, 420.0
0.52000, 2746.0
0.60000, 455.0
0.68000, 253.0
0.76000, 308.0
0.84000, 391.0
0.92000, 454.0
1.00000, 536.0
1.08000, 544.0
1.16000, 567.0
1.24000, 629.0
1.32000, 658.0
1.40000, 690.0
1.48000, 764.0
1.56000, 871.0
1.64000, 3822.0
1.72000, 51241.0
1.80000, 25168.0
1.88000, 2085.0
1.96000, 337.0
2.04000, 354.0
2.12000, 320.0
2.20000, 529.0
2.28000, 3215.0
2.36000, 2431.0
2.44000, 898.0
2.52000, 501.0
2.60000, 290.0
2.68000, 265.0
2.76000, 257.0
2.84000, 254.0
2.92000, 223.0
3.00000, 226.0
3.08000, 226.0
3.16000, 215.0
3.24000, 194.0
3.32000, 221.0
3.40000, 214.0
3.48000, 256.0
3.56000, 220.0
3.64000, 190.0
3.72000, 197.0
3.80000, 167.0
3.88000, 181.0
3.96000, 174.0
4.04000, 170.0
4.12000, 164.0
4.20000, 168.0
4.28000, 161.0
4.36000, 161.0
4.44000, 161.0
4.52000, 152.0
4.60000, 150.0
4.68000, 141.0
4.76000, 141.0
4.84000, 140.0
4.92000, 130.0
5.00000, 125.0
5.08000, 138.0
5.16000, 126.0
5.24000, 133.0
5.32000, 125.0
5.40000, 124.0
5.48000, 126.0
5.56000, 118.0
5.64000, 113.0
5.72000, 110.0
5.80000, 116.0
5.88000, 104.0
5.96000, 109.0
6.04000, 89.0
6.12000, 98.0
6.20000, 87.0
6.28000, 102.0
6.36000, 84.0
6.44000, 92.0
6.52000, 83.0
6.60000, 83.0
6.68000, 86.0
6.76000, 79.0
6.84000, 80.0
6.92000, 90.0
7.00000, 70.0
7.08000, 74.0
7.16000, 80.0
7.24000, 77.0
7.32000, 71.0
7.40000, 73.0
7.48000, 59.0
7.56000, 67.0
7.64000, 64.0
7.72000, 47.0
7.80000, 56.0
7.88000, 57.0
7.96000, 65.0
8.04000, 54.0
8.12000, 66.0
8.20000, 65.0
8.28000, 49.0
8.36000, 59.0
8.44000, 46.0
8.52000, 50.0
8.60000, 52.0
8.68000, 42.0
8.76000, 41.0
8.84000, 39.0
8.92000, 44.0
9.00000, 44.0
9.08000, 41.0
9.16000, 45.0
9.24000, 42.0
9.32000, 35.0
9.40000, 38.0
9.48000, 36.0
9.56000, 38.0
9.64000, 33.0
9.72000, 34.0
9.80000, 28.0
9.88000, 39.0
9.96000, 31.0
10.04000, 28.0
10.12000, 32.0
10.20000, 26.0
10.28000, 35.0
10.36000, 31.0
10.44000, 25.0
10.52000, 28.0
10.60000, 27.0
10.68000, 21.0
10.76000, 25.0
10.84000, 24.0
10.92000, 20.0
11.00000, 27.0
11.08000, 20.0
11.16000, 22.0
11.24000, 23.0
11.32000, 21.0
11.40000, 17.0
11.48000, 17.0
11.56000, 14.0
11.64000, 13.0
11.72000, 24.0
11.80000, 16.0
11.88000, 14.0
11.96000, 22.0
12.04000, 21.0
12.12000, 15.0
12.20000, 14.0
12.28000, 11.0
12.36000, 11.0
12.44000, 9.0
12.52000, 9.0
12.60000, 11.0
12.68000, 11.0
12.76000, 8.0
12.84000, 8.0
12.92000, 8.0
13.00000, 10.0
13.08000, 8.0
13.16000, 8.0
13.24000, 7.0
13.32000, 10.0
13.40000, 6.0
13.48000, 5.0
13.56000, 7.0
13.64000, 6.0
13.72000, 4.0
13.80000, 5.0
13.88000, 3.0
13.96000, 4.0
14.04000, 6.0
14.12000, 6.0
14.20000, 6.0
14.28000, 2.0
14.36000, 3.0
14.44000, 5.0
14.52000, 2.0
14.60000, 3.0
14.68000, 1.0
14.76000, 3.0
14.84000, 3.0
14.92000, 2.0
15.00000, 0.0
15.08000, 0.0
15.16000, 1.0
15.24000, 0.0
15.32000, 0.0
15.40000, 0.0
15.48000, 0.0
15.56000, 0.0
15.64000, 0.0
15.72000, 0.0
15.80000, 0.0
15.88000, 0.0
15.96000, 0.0
16.04000, 0.0
16.12000, 0.0
16.20000, 0.0
16.28000, 0.0
16.36000, 0.0
16.44000, 0.0
16.52000, 0.0
16.60000, 0.0
16.68000, 0.0
16.76000, 0.0
16.84000, 0.0
16.92000, 0.0
17.00000, 0.0
17.08000, 0.0
17.16000, 0.0
17.24000, 0.0
17.32000, 0.0
17.40000, 0.0
17.48000, 0.0
17.56000, 0.0
17.64000, 0.0
17.72000, 0.0
17.80000, 0.0
17.88000, 0.0
17.96000, 0.0
18.04000, 0.0
18.12000, 0.0
18.20000, 0.0
18.28000, 0.0
18.36000, 0.0
18.44000, 0.0
18.52000, 0.0
18.60000, 0.0
18.68000, 0.0
18.76000, 0.0
18.84000, 0.0
18.92000, 0.0
19.00000, 0.0
19.08000, 0.0
19.16000, 0.0
19.24000, 0.0
19.32000, 0.0
19.40000, 0.0
19.48000, 0.0
19.56000, 0.0
19.64000, 0.0
19.72000, 0.0
19.80000, 0.0
19.88000, 0.0
19.96000, 0.0
20.04000, 0.0
20.12000, 0.0
20.20000, 0.0
20.26000, 0.0
#ENDOFDATA   :