File: Thick 1/D9_15keV_10.txt
#FORMAT      : EMSA/MAS Spectral Data File
#VERSION     : 1.0
#TITLE       : D9_15keV_10
#DATE        : 04-JUL-2024
#TIME        : 10:03
#OWNER       :
#NPOINTS     : 1024.0
#NCOLUMNS    : 1.0
#XUNITS      : keV
#YUNITS      : counts
#DATATYPE    : XY
#XPERCHAN    : 0.02
#OFFSET      : -0.2
#SIGNALTYPE  : EDS
#CHOFFSET    : 10.0
#LIVETIME    : 120.051
#REALTIME    : 122.623
#BEAMKV      : 15.0
#MAGCAM      : 2700.0
#XTILTSTGE   : 0.0
#AZIMANGLE   : 0.0
#ELEVANGLE   : 25.5
#XPOSITION mm: 0.3475
#YPOSITION mm: -0.9593
#ZPOSITION mm: 14.6334
##OXINSTPT   : 2
##OXINSTSTROB: 69.71
##OXINSTELEMS: 6,8,16,29,7,15,9
##OXINSTLABEL: 6, 0.277, C K?1_2
##OXINSTLABEL: 8, 0.525, O K?1
##OXINSTLABEL: 16, 2.308, S K?1
##OXINSTLABEL: 16, 2.464, S K?1
##OXINSTLABEL: 29, 8.048, Cu K?1
##OXINSTLABEL: 29, 8.905, Cu K?1
##OXINSTLABEL: 29, 0.930, Cu L?1,2
##OXINSTLABEL: 29, 0.832, Cu L?
##OXINSTLABEL: 29, 0.811, Cu Ll
##OXINSTLABEL: 7, 0.392, N K?1_2
##OXINSTLABEL: 15, 2.014, P K?1
##OXINSTLABEL: 15, 2.139, P K?1
##OXINSTLABEL: 9, 0.677, F K?1_2
#SPECTRUM    : Spectral Data Starts Here
-0.20000, 0.0
-0.12000, 0.0
-0.04000, 531.0
0.04000, 10080.0
0.12000, 999.0
0.20000, 506.0
0.28000, 3275.0
0.36000, 387.0
0.44000, 651.0
0.52000, 5098.0
0.60000, 610.0
0.68000, 233.0
0.76000, 306.0
0.84000, 406.0
0.92000, 446.0
1.00000, 530.0
1.08000, 579.0
1.16000, 614.0
1.24000, 638.0
1.32000, 709.0
1.40000, 712.0
1.48000, 818.0
1.56000, 900.0
1.64000, 4393.0
1.72000, 60517.0
1.80000, 29508.0
1.88000, 2300.0
1.96000, 299.0
2.04000, 232.0
2.12000, 257.0
2.20000, 286.0
2.28000, 692.0
2.36000, 594.0
2.44000, 315.0
2.52000, 283.0
2.60000, 260.0
2.68000, 240.0
2.76000, 255.0
2.84000, 239.0
2.92000, 224.0
3.00000, 240.0
3.08000, 245.0
3.16000, 227.0
3.24000, 210.0
3.32000, 230.0
3.40000, 235.0
3.48000, 267.0
3.56000, 235.0
3.64000, 212.0
3.72000, 204.0
3.80000, 190.0
3.88000, 189.0
3.96000, 175.0
4.04000, 182.0
4.12000, 185.0
4.20000, 179.0
4.28000, 153.0
4.36000, 175.0
4.44000, 182.0
4.52000, 141.0
4.60000, 141.0
4.68000, 150.0
4.76000, 142.0
4.84000, 142.0
4.92000, 131.0
5.00000, 132.0
5.08000, 135.0
5.16000, 124.0
5.24000, 121.0
5.32000, 136.0
5.40000, 109.0
5.48000, 119.0
5.56000, 127.0
5.64000, 115.0
5.72000, 102.0
5.80000, 91.0
5.88000, 96.0
5.96000, 99.0
6.04000, 100.0
6.12000, 98.0
6.20000, 110.0
6.28000, 99.0
6.36000, 84.0
6.44000, 77.0
6.52000, 83.0
6.60000, 86.0
6.68000, 83.0
6.76000, 75.0
6.84000, 79.0
6.92000, 72.0
7.00000, 79.0
7.08000, 61.0
7.16000, 77.0
7.24000, 62.0
7.32000, 64.0
7.40000, 75.0
7.48000, 64.0
7.56000, 56.0
7.64000, 53.0
7.72000, 55.0
7.80000, 60.0
7.88000, 52.0
7.96000, 56.0
8.04000, 61.0
8.12000, 57.0
8.20000, 56.0
8.28000, 45.0
8.36000, 59.0
8.44000, 50.0
8.52000, 52.0
8.60000, 49.0
8.68000, 43.0
8.76000, 54.0
8.84000, 39.0
8.92000, 48.0
9.00000, 43.0
9.08000, 39.0
9.16000, 36.0
9.24000, 33.0
9.32000, 35.0
9.40000, 42.0
9.48000, 33.0
9.56000, 33.0
9.64000, 38.0
9.72000, 33.0
9.80000, 28.0
9.88000, 29.0
9.96000, 31.0
10.04000, 27.0
10.12000, 26.0
10.20000, 32.0
10.28000, 27.0
10.36000, 24.0
10.44000, 23.0
10.52000, 25.0
10.60000, 23.0
10.68000, 27.0
10.76000, 24.0
10.84000, 17.0
10.92000, 26.0
11.00000, 23.0
11.08000, 21.0
11.16000, 18.0
11.24000, 24.0
11.32000, 20.0
11.40000, 13.0
11.48000, 14.0
11.56000, 14.0
11.64000, 15.0
11.72000, 11.0
11.80000, 13.0
11.88000, 16.0
11.96000, 9.0
12.04000, 15.0
12.12000, 12.0
12.20000, 11.0
12.28000, 12.0
12.36000, 12.0
12.44000, 13.0
12.52000, 11.0
12.60000, 8.0
12.68000, 10.0
12.76000, 6.0
12.84000, 7.0
12.92000, 7.0
13.00000, 4.0
13.08000, 5.0
13.16000, 6.0
13.24000, 5.0
13.32000, 6.0
13.40000, 5.0
13.48000, 3.0
13.56000, 4.0
13.64000, 7.0
13.72000, 3.0
13.80000, 1.0
13.88000, 5.0
13.96000, 3.0
14.04000, 2.0
14.12000, 2.0
14.20000, 2.0
14.28000, 4.0
14.36000, 2.0
14.44000, 1.0
14.52000, 2.0
14.60000, 0.0
14.68000, 0.0
14.76000, 3.0
14.84000, 0.0
14.92000, 0.0
15.00000, 1.0
15.08000, 0.0
15.16000, 0.0
15.24000, 0.0
15.32000, 0.0
15.40000, 1.0
15.48000, 0.0
15.56000, 0.0
15.64000, 0.0
15.72000, 0.0
15.80000, 0.0
15.88000, 0.0
15.96000, 0.0
16.04000, 0.0
16.12000, 0.0
16.20000, 0.0
16.28000, 0.0
16.36000, 0.0
16.44000, 0.0
16.52000, 0.0
16.60000, 0.0
16.68000, 0.0
16.76000, 0.0
16.84000, 0.0
16.92000, 0.0
17.00000, 0.0
17.08000, 0.0
17.16000, 0.0
17.24000, 0.0
17.32000, 0.0
17.40000, 0.0
17.48000, 0.0
17.56000, 0.0
17.64000, 0.0
17.72000, 0.0
17.80000, 0.0
17.88000, 0.0
17.96000, 0.0
18.04000, 0.0
18.12000, 0.0
18.20000, 0.0
18.28000, 0.0
18.36000, 0.0
18.44000, 0.0
18.52000, 1.0
18.60000, 0.0
18.68000, 0.0
18.76000, 0.0
18.84000, 0.0
18.92000, 0.0
19.00000, 0.0
19.08000, 0.0
19.16000, 0.0
19.24000, 0.0
19.32000, 0.0
19.40000, 0.0
19.48000, 0.0
19.56000, 0.0
19.64000, 0.0
19.72000, 0.0
19.80000, 0.0
19.88000, 0.0
19.96000, 1.0
20.04000, 0.0
20.12000, 0.0
20.20000, 0.0
20.26000, 0.0
#ENDOFDATA   :