File: Thick 1/N15_15keV_10.txt
#FORMAT      : EMSA/MAS Spectral Data File
#VERSION     : 1.0
#TITLE       : N15_15keV_10
#DATE        : 04-JUL-2024
#TIME        : 10:07
#OWNER       :
#NPOINTS     : 1024.0
#NCOLUMNS    : 1.0
#XUNITS      : keV
#YUNITS      : counts
#DATATYPE    : XY
#XPERCHAN    : 0.02
#OFFSET      : -0.2
#SIGNALTYPE  : EDS
#CHOFFSET    : 10.0
#LIVETIME    : 120.17
#REALTIME    : 122.419
#BEAMKV      : 15.0
#MAGCAM      : 750.0
#XTILTSTGE   : 0.0
#AZIMANGLE   : 0.0
#ELEVANGLE   : 25.5
#XPOSITION mm: 0.0598
#YPOSITION mm: 2.0935
#ZPOSITION mm: 14.6334
##OXINSTPT   : 2
##OXINSTSTROB: 69.70
##OXINSTELEMS: 6,8,16,29,7,15,9
##OXINSTLABEL: 6, 0.277, C K?1_2
##OXINSTLABEL: 8, 0.525, O K?1
##OXINSTLABEL: 16, 2.308, S K?1
##OXINSTLABEL: 16, 2.464, S K?1
##OXINSTLABEL: 29, 8.048, Cu K?1
##OXINSTLABEL: 29, 8.905, Cu K?1
##OXINSTLABEL: 29, 0.930, Cu L?1,2
##OXINSTLABEL: 29, 0.832, Cu L?
##OXINSTLABEL: 29, 0.811, Cu Ll
##OXINSTLABEL: 7, 0.392, N K?1_2
##OXINSTLABEL: 15, 2.014, P K?1
##OXINSTLABEL: 15, 2.139, P K?1
##OXINSTLABEL: 9, 0.677, F K?1_2
#SPECTRUM    : Spectral Data Starts Here
-0.20000, 0.0
-0.12000, 0.0
-0.04000, 549.0
0.04000, 10243.0
0.12000, 1358.0
0.20000, 630.0
0.28000, 409.0
0.36000, 133.0
0.44000, 227.0
0.52000, 1140.0
0.60000, 388.0
0.68000, 309.0
0.76000, 361.0
0.84000, 411.0
0.92000, 453.0
1.00000, 522.0
1.08000, 577.0
1.16000, 601.0
1.24000, 621.0
1.32000, 685.0
1.40000, 667.0
1.48000, 743.0
1.56000, 811.0
1.64000, 3054.0
1.72000, 39320.0
1.80000, 19546.0
1.88000, 1749.0
1.96000, 431.0
2.04000, 451.0
2.12000, 433.0
2.20000, 955.0
2.28000, 7455.0
2.36000, 5422.0
2.44000, 1772.0
2.52000, 807.0
2.60000, 353.0
2.68000, 280.0
2.76000, 240.0
2.84000, 270.0
2.92000, 240.0
3.00000, 228.0
3.08000, 241.0
3.16000, 224.0
3.24000, 227.0
3.32000, 216.0
3.40000, 242.0
3.48000, 241.0
3.56000, 221.0
3.64000, 212.0
3.72000, 219.0
3.80000, 207.0
3.88000, 194.0
3.96000, 203.0
4.04000, 197.0
4.12000, 174.0
4.20000, 174.0
4.28000, 173.0
4.36000, 175.0
4.44000, 194.0
4.52000, 159.0
4.60000, 155.0
4.68000, 170.0
4.76000, 165.0
4.84000, 148.0
4.92000, 134.0
5.00000, 144.0
5.08000, 133.0
5.16000, 142.0
5.24000, 133.0
5.32000, 121.0
5.40000, 121.0
5.48000, 115.0
5.56000, 127.0
5.64000, 134.0
5.72000, 111.0
5.80000, 103.0
5.88000, 115.0
5.96000, 114.0
6.04000, 103.0
6.12000, 116.0
6.20000, 100.0
6.28000, 110.0
6.36000, 101.0
6.44000, 96.0
6.52000, 88.0
6.60000, 87.0
6.68000, 95.0
6.76000, 94.0
6.84000, 85.0
6.92000, 80.0
7.00000, 79.0
7.08000, 68.0
7.16000, 73.0
7.24000, 66.0
7.32000, 61.0
7.40000, 67.0
7.48000, 70.0
7.56000, 75.0
7.64000, 73.0
7.72000, 74.0
7.80000, 69.0
7.88000, 69.0
7.96000, 71.0
8.04000, 61.0
8.12000, 59.0
8.20000, 57.0
8.28000, 66.0
8.36000, 53.0
8.44000, 56.0
8.52000, 54.0
8.60000, 55.0
8.68000, 51.0
8.76000, 51.0
8.84000, 47.0
8.92000, 47.0
9.00000, 42.0
9.08000, 58.0
9.16000, 43.0
9.24000, 49.0
9.32000, 43.0
9.40000, 40.0
9.48000, 46.0
9.56000, 42.0
9.64000, 33.0
9.72000, 44.0
9.80000, 28.0
9.88000, 32.0
9.96000, 36.0
10.04000, 40.0
10.12000, 32.0
10.20000, 32.0
10.28000, 29.0
10.36000, 36.0
10.44000, 26.0
10.52000, 34.0
10.60000, 34.0
10.68000, 32.0
10.76000, 31.0
10.84000, 26.0
10.92000, 28.0
11.00000, 26.0
11.08000, 28.0
11.16000, 26.0
11.24000, 23.0
11.32000, 23.0
11.40000, 22.0
11.48000, 20.0
11.56000, 14.0
11.64000, 20.0
11.72000, 18.0
11.80000, 20.0
11.88000, 22.0
11.96000, 17.0
12.04000, 16.0
12.12000, 13.0
12.20000, 20.0
12.28000, 15.0
12.36000, 19.0
12.44000, 19.0
12.52000, 18.0
12.60000, 8.0
12.68000, 12.0
12.76000, 14.0
12.84000, 12.0
12.92000, 13.0
13.00000, 14.0
13.08000, 10.0
13.16000, 11.0
13.24000, 11.0
13.32000, 13.0
13.40000, 11.0
13.48000, 7.0
13.56000, 5.0
13.64000, 8.0
13.72000, 5.0
13.80000, 6.0
13.88000, 7.0
13.96000, 6.0
14.04000, 2.0
14.12000, 4.0
14.20000, 6.0
14.28000, 8.0
14.36000, 6.0
14.44000, 5.0
14.52000, 3.0
14.60000, 3.0
14.68000, 3.0
14.76000, 1.0
14.84000, 2.0
14.92000, 3.0
15.00000, 0.0
15.08000, 0.0
15.16000, 0.0
15.24000, 0.0
15.32000, 0.0
15.40000, 0.0
15.48000, 1.0
15.56000, 0.0
15.64000, 0.0
15.72000, 0.0
15.80000, 0.0
15.88000, 0.0
15.96000, 0.0
16.04000, 0.0
16.12000, 0.0
16.20000, 0.0
16.28000, 0.0
16.36000, 0.0
16.44000, 0.0
16.52000, 0.0
16.60000, 0.0
16.68000, 0.0
16.76000, 0.0
16.84000, 0.0
16.92000, 0.0
17.00000, 0.0
17.08000, 0.0
17.16000, 0.0
17.24000, 0.0
17.32000, 0.0
17.40000, 0.0
17.48000, 0.0
17.56000, 0.0
17.64000, 0.0
17.72000, 0.0
17.80000, 0.0
17.88000, 0.0
17.96000, 0.0
18.04000, 0.0
18.12000, 0.0
18.20000, 0.0
18.28000, 0.0
18.36000, 0.0
18.44000, 0.0
18.52000, 0.0
18.60000, 0.0
18.68000, 0.0
18.76000, 0.0
18.84000, 0.0
18.92000, 0.0
19.00000, 0.0
19.08000, 0.0
19.16000, 0.0
19.24000, 0.0
19.32000, 0.0
19.40000, 0.0
19.48000, 0.0
19.56000, 0.0
19.64000, 0.0
19.72000, 0.0
19.80000, 0.0
19.88000, 0.0
19.96000, 0.0
20.04000, 0.0
20.12000, 0.0
20.20000, 0.0
20.26000, 0.0
#ENDOFDATA   :