File: Spectras 20250424/20250425_10K_G10_1.txt
#FORMAT      : EMSA/MAS Spectral Data File
#VERSION     : 1.0
#TITLE       : 20250425_10K_G10_1
#DATE        : 24-APR-2025
#TIME        : 09:57
#OWNER       :
#NPOINTS     : 2048.0
#NCOLUMNS    : 1.0
#XUNITS      : keV
#YUNITS      : counts
#DATATYPE    : XY
#XPERCHAN    : 0.005
#OFFSET      : -0.1
#SIGNALTYPE  : EDS
#CHOFFSET    : 20.0
#LIVETIME    : 60.0
#REALTIME    : 61.8877
#BEAMKV      : 10.0
#MAGCAM      : 3300.0
#XTILTSTGE   : 0.0
#AZIMANGLE   : 0.0
#ELEVANGLE   : 29.0
#XPOSITION mm: 0.5138
#YPOSITION mm: -0.6150
#ZPOSITION mm: 13.5353
##OXINSTPT   : 2
##OXINSTSTROB: 67.49
#SPECTRUM    : Spectral Data Starts Here
-0.10000, 0.0
-0.06500, 4.0
-0.03000, 71.0
0.00500, 465.0
0.04000, 1007.0
0.07500, 743.0
0.11000, 190.0
0.14500, 56.0
0.18000, 59.0
0.21500, 74.0
0.25000, 108.0
0.28500, 118.0
0.32000, 88.0
0.35500, 81.0
0.39000, 128.0
0.42500, 284.0
0.46000, 1348.0
0.49500, 4584.0
0.53000, 6000.0
0.56500, 2711.0
0.60000, 519.0
0.63500, 110.0
0.67000, 103.0
0.70500, 121.0
0.74000, 124.0
0.77500, 136.0
0.81000, 151.0
0.84500, 170.0
0.88000, 156.0
0.91500, 171.0
0.95000, 185.0
0.98500, 193.0
1.02000, 193.0
1.05500, 211.0
1.09000, 202.0
1.12500, 189.0
1.16000, 190.0
1.19500, 196.0
1.23000, 202.0
1.26500, 198.0
1.30000, 216.0
1.33500, 180.0
1.37000, 209.0
1.40500, 195.0
1.44000, 206.0
1.47500, 229.0
1.51000, 242.0
1.54500, 224.0
1.58000, 237.0
1.61500, 319.0
1.65000, 1243.0
1.68500, 5509.0
1.72000, 12684.0
1.75500, 14536.0
1.79000, 7617.0
1.82500, 2505.0
1.86000, 782.0
1.89500, 296.0
1.93000, 143.0
1.96500, 96.0
2.00000, 89.0
2.03500, 81.0
2.07000, 91.0
2.10500, 89.0
2.14000, 86.0
2.17500, 85.0
2.21000, 92.0
2.24500, 124.0
2.28000, 138.0
2.31500, 136.0
2.35000, 109.0
2.38500, 110.0
2.42000, 86.0
2.45500, 82.0
2.49000, 79.0
2.52500, 66.0
2.56000, 88.0
2.59500, 67.0
2.63000, 74.0
2.66500, 79.0
2.70000, 73.0
2.73500, 82.0
2.77000, 76.0
2.80500, 68.0
2.84000, 60.0
2.87500, 53.0
2.91000, 57.0
2.94500, 53.0
2.98000, 62.0
3.01500, 68.0
3.05000, 67.0
3.08500, 61.0
3.12000, 64.0
3.15500, 73.0
3.19000, 63.0
3.22500, 80.0
3.26000, 52.0
3.29500, 60.0
3.33000, 51.0
3.36500, 56.0
3.40000, 55.0
3.43500, 70.0
3.47000, 64.0
3.50500, 93.0
3.54000, 74.0
3.57500, 56.0
3.61000, 51.0
3.64500, 64.0
3.68000, 42.0
3.71500, 56.0
3.75000, 56.0
3.78500, 49.0
3.82000, 38.0
3.85500, 42.0
3.89000, 41.0
3.92500, 47.0
3.96000, 38.0
3.99500, 41.0
4.03000, 32.0
4.06500, 45.0
4.10000, 45.0
4.13500, 44.0
4.17000, 32.0
4.20500, 45.0
4.24000, 35.0
4.27500, 40.0
4.31000, 46.0
4.34500, 37.0
4.38000, 33.0
4.41500, 35.0
4.45000, 49.0
4.48500, 35.0
4.52000, 37.0
4.55500, 33.0
4.59000, 31.0
4.62500, 32.0
4.66000, 35.0
4.69500, 43.0
4.73000, 32.0
4.76500, 29.0
4.80000, 28.0
4.83500, 37.0
4.87000, 35.0
4.90500, 18.0
4.94000, 31.0
4.97500, 35.0
5.01000, 30.0
5.04500, 39.0
5.08000, 21.0
5.11500, 29.0
5.15000, 24.0
5.18500, 39.0
5.22000, 31.0
5.25500, 39.0
5.29000, 33.0
5.32500, 28.0
5.36000, 17.0
5.39500, 19.0
5.43000, 21.0
5.46500, 13.0
5.50000, 30.0
5.53500, 23.0
5.57000, 21.0
5.60500, 18.0
5.64000, 22.0
5.67500, 17.0
5.71000, 29.0
5.74500, 26.0
5.78000, 11.0
5.81500, 17.0
5.85000, 22.0
5.88500, 22.0
5.92000, 20.0
5.95500, 11.0
5.99000, 22.0
6.02500, 22.0
6.06000, 28.0
6.09500, 7.0
6.13000, 15.0
6.16500, 14.0
6.20000, 16.0
6.23500, 24.0
6.27000, 20.0
6.30500, 9.0
6.34000, 19.0
6.37500, 17.0
6.41000, 16.0
6.44500, 18.0
6.48000, 7.0
6.51500, 15.0
6.55000, 13.0
6.58500, 21.0
6.62000, 11.0
6.65500, 16.0
6.69000, 12.0
6.72500, 14.0
6.76000, 12.0
6.79500, 13.0
6.83000, 11.0
6.86500, 13.0
6.90000, 7.0
6.93500, 25.0
6.97000, 9.0
7.00500, 12.0
7.04000, 16.0
7.07500, 9.0
7.11000, 5.0
7.14500, 16.0
7.18000, 16.0
7.21500, 15.0
7.25000, 8.0
7.28500, 6.0
7.32000, 11.0
7.35500, 11.0
7.39000, 10.0
7.42500, 10.0
7.46000, 8.0
7.49500, 9.0
7.53000, 10.0
7.56500, 7.0
7.60000, 8.0
7.63500, 8.0
7.67000, 9.0
7.70500, 8.0
7.74000, 9.0
7.77500, 6.0
7.81000, 9.0
7.84500, 6.0
7.88000, 8.0
7.91500, 6.0
7.95000, 8.0
7.98500, 3.0
8.02000, 2.0
8.05500, 7.0
8.09000, 5.0
8.12500, 1.0
8.16000, 2.0
8.19500, 6.0
8.23000, 9.0
8.26500, 6.0
8.30000, 8.0
8.33500, 9.0
8.37000, 5.0
8.40500, 6.0
8.44000, 5.0
8.47500, 3.0
8.51000, 5.0
8.54500, 3.0
8.58000, 6.0
8.61500, 2.0
8.65000, 3.0
8.68500, 4.0
8.72000, 3.0
8.75500, 5.0
8.79000, 2.0
8.82500, 3.0
8.86000, 5.0
8.89500, 2.0
8.93000, 2.0
8.96500, 2.0
9.00000, 4.0
9.03500, 1.0
9.07000, 5.0
9.10500, 1.0
9.14000, 2.0
9.17500, 1.0
9.21000, 1.0
9.24500, 1.0
9.28000, 3.0
9.31500, 1.0
9.35000, 0.0
9.38500, 0.0
9.42000, 2.0
9.45500, 1.0
9.49000, 2.0
9.52500, 2.0
9.56000, 1.0
9.59500, 3.0
9.63000, 2.0
9.66500, 0.0
9.70000, 1.0
9.73500, 1.0
9.77000, 1.0
9.80500, 1.0
9.84000, 1.0
9.87500, 0.0
9.91000, 0.0
9.94500, 0.0
9.98000, 1.0
10.01500, 0.0
10.05000, 0.0
10.08500, 0.0
10.12000, 0.0
10.13500, 0.0
#ENDOFDATA   :