File: Spectras 20250424/20250425_10K_C6_2.txt
#FORMAT      : EMSA/MAS Spectral Data File
#VERSION     : 1.0
#TITLE       : 20250425_10K_C6_2
#DATE        : 24-APR-2025
#TIME        : 10:24
#OWNER       :
#NPOINTS     : 2048.0
#NCOLUMNS    : 1.0
#XUNITS      : keV
#YUNITS      : counts
#DATATYPE    : XY
#XPERCHAN    : 0.005
#OFFSET      : -0.1
#SIGNALTYPE  : EDS
#CHOFFSET    : 20.0
#LIVETIME    : 60.0002
#REALTIME    : 61.8549
#BEAMKV      : 10.0
#MAGCAM      : 700.0
#XTILTSTGE   : 0.0
#AZIMANGLE   : 0.0
#ELEVANGLE   : 29.0
#XPOSITION mm: 1.8685
#YPOSITION mm: -0.6548
#ZPOSITION mm: 13.5200
##OXINSTPT   : 2
##OXINSTSTROB: 67.47
#SPECTRUM    : Spectral Data Starts Here
-0.10000, 0.0
-0.06500, 1.0
-0.03000, 64.0
0.00500, 494.0
0.04000, 1036.0
0.07500, 780.0
0.11000, 215.0
0.14500, 79.0
0.18000, 95.0
0.21500, 107.0
0.25000, 141.0
0.28500, 137.0
0.32000, 75.0
0.35500, 73.0
0.39000, 131.0
0.42500, 268.0
0.46000, 1306.0
0.49500, 4325.0
0.53000, 5727.0
0.56500, 2600.0
0.60000, 476.0
0.63500, 125.0
0.67000, 118.0
0.70500, 111.0
0.74000, 132.0
0.77500, 160.0
0.81000, 155.0
0.84500, 169.0
0.88000, 174.0
0.91500, 187.0
0.95000, 169.0
0.98500, 186.0
1.02000, 192.0
1.05500, 184.0
1.09000, 224.0
1.12500, 201.0
1.16000, 201.0
1.19500, 193.0
1.23000, 198.0
1.26500, 214.0
1.30000, 204.0
1.33500, 203.0
1.37000, 199.0
1.40500, 188.0
1.44000, 192.0
1.47500, 222.0
1.51000, 206.0
1.54500, 215.0
1.58000, 241.0
1.61500, 345.0
1.65000, 1156.0
1.68500, 5151.0
1.72000, 12146.0
1.75500, 13271.0
1.79000, 7472.0
1.82500, 2304.0
1.86000, 778.0
1.89500, 291.0
1.93000, 141.0
1.96500, 107.0
2.00000, 91.0
2.03500, 91.0
2.07000, 95.0
2.10500, 93.0
2.14000, 95.0
2.17500, 104.0
2.21000, 133.0
2.24500, 223.0
2.28000, 359.0
2.31500, 411.0
2.35000, 312.0
2.38500, 187.0
2.42000, 127.0
2.45500, 119.0
2.49000, 104.0
2.52500, 97.0
2.56000, 93.0
2.59500, 81.0
2.63000, 76.0
2.66500, 78.0
2.70000, 71.0
2.73500, 72.0
2.77000, 76.0
2.80500, 73.0
2.84000, 67.0
2.87500, 77.0
2.91000, 76.0
2.94500, 74.0
2.98000, 51.0
3.01500, 70.0
3.05000, 56.0
3.08500, 71.0
3.12000, 76.0
3.15500, 67.0
3.19000, 56.0
3.22500, 63.0
3.26000, 58.0
3.29500, 62.0
3.33000, 59.0
3.36500, 63.0
3.40000, 51.0
3.43500, 56.0
3.47000, 86.0
3.50500, 74.0
3.54000, 72.0
3.57500, 73.0
3.61000, 54.0
3.64500, 47.0
3.68000, 44.0
3.71500, 57.0
3.75000, 43.0
3.78500, 51.0
3.82000, 46.0
3.85500, 37.0
3.89000, 49.0
3.92500, 44.0
3.96000, 34.0
3.99500, 46.0
4.03000, 29.0
4.06500, 44.0
4.10000, 40.0
4.13500, 45.0
4.17000, 32.0
4.20500, 46.0
4.24000, 34.0
4.27500, 35.0
4.31000, 43.0
4.34500, 38.0
4.38000, 37.0
4.41500, 39.0
4.45000, 34.0
4.48500, 31.0
4.52000, 38.0
4.55500, 31.0
4.59000, 40.0
4.62500, 33.0
4.66000, 31.0
4.69500, 30.0
4.73000, 32.0
4.76500, 39.0
4.80000, 28.0
4.83500, 42.0
4.87000, 29.0
4.90500, 30.0
4.94000, 32.0
4.97500, 23.0
5.01000, 23.0
5.04500, 28.0
5.08000, 24.0
5.11500, 24.0
5.15000, 33.0
5.18500, 25.0
5.22000, 26.0
5.25500, 23.0
5.29000, 30.0
5.32500, 24.0
5.36000, 26.0
5.39500, 22.0
5.43000, 31.0
5.46500, 25.0
5.50000, 29.0
5.53500, 15.0
5.57000, 13.0
5.60500, 17.0
5.64000, 13.0
5.67500, 18.0
5.71000, 15.0
5.74500, 27.0
5.78000, 25.0
5.81500, 22.0
5.85000, 13.0
5.88500, 23.0
5.92000, 22.0
5.95500, 15.0
5.99000, 16.0
6.02500, 18.0
6.06000, 16.0
6.09500, 15.0
6.13000, 20.0
6.16500, 16.0
6.20000, 22.0
6.23500, 14.0
6.27000, 19.0
6.30500, 17.0
6.34000, 15.0
6.37500, 16.0
6.41000, 14.0
6.44500, 13.0
6.48000, 25.0
6.51500, 19.0
6.55000, 16.0
6.58500, 15.0
6.62000, 11.0
6.65500, 8.0
6.69000, 11.0
6.72500, 11.0
6.76000, 13.0
6.79500, 14.0
6.83000, 8.0
6.86500, 12.0
6.90000, 9.0
6.93500, 14.0
6.97000, 10.0
7.00500, 9.0
7.04000, 14.0
7.07500, 15.0
7.11000, 9.0
7.14500, 8.0
7.18000, 17.0
7.21500, 6.0
7.25000, 8.0
7.28500, 8.0
7.32000, 11.0
7.35500, 7.0
7.39000, 8.0
7.42500, 10.0
7.46000, 8.0
7.49500, 7.0
7.53000, 11.0
7.56500, 10.0
7.60000, 4.0
7.63500, 8.0
7.67000, 8.0
7.70500, 12.0
7.74000, 8.0
7.77500, 5.0
7.81000, 9.0
7.84500, 9.0
7.88000, 6.0
7.91500, 7.0
7.95000, 7.0
7.98500, 8.0
8.02000, 6.0
8.05500, 8.0
8.09000, 5.0
8.12500, 5.0
8.16000, 6.0
8.19500, 4.0
8.23000, 5.0
8.26500, 6.0
8.30000, 5.0
8.33500, 4.0
8.37000, 4.0
8.40500, 6.0
8.44000, 4.0
8.47500, 3.0
8.51000, 7.0
8.54500, 3.0
8.58000, 6.0
8.61500, 3.0
8.65000, 3.0
8.68500, 4.0
8.72000, 3.0
8.75500, 2.0
8.79000, 3.0
8.82500, 7.0
8.86000, 5.0
8.89500, 4.0
8.93000, 0.0
8.96500, 1.0
9.00000, 3.0
9.03500, 6.0
9.07000, 7.0
9.10500, 5.0
9.14000, 4.0
9.17500, 2.0
9.21000, 1.0
9.24500, 1.0
9.28000, 0.0
9.31500, 2.0
9.35000, 2.0
9.38500, 2.0
9.42000, 1.0
9.45500, 1.0
9.49000, 2.0
9.52500, 1.0
9.56000, 0.0
9.59500, 2.0
9.63000, 1.0
9.66500, 0.0
9.70000, 2.0
9.73500, 0.0
9.77000, 0.0
9.80500, 2.0
9.84000, 1.0
9.87500, 0.0
9.91000, 0.0
9.94500, 1.0
9.98000, 0.0
10.01500, 0.0
10.05000, 0.0
10.08500, 0.0
10.12000, 0.0
10.13500, 0.0
#ENDOFDATA   :