File: Spectras 20250424/20250425_10K_D2_area2_3.txt
#FORMAT      : EMSA/MAS Spectral Data File
#VERSION     : 1.0
#TITLE       : 20250425_10K_D2_area2_3
#DATE        : 24-APR-2025
#TIME        : 10:33
#OWNER       :
#NPOINTS     : 2048.0
#NCOLUMNS    : 1.0
#XUNITS      : keV
#YUNITS      : counts
#DATATYPE    : XY
#XPERCHAN    : 0.005
#OFFSET      : -0.1
#SIGNALTYPE  : EDS
#CHOFFSET    : 20.0
#LIVETIME    : 60.0
#REALTIME    : 61.9048
#BEAMKV      : 10.0
#MAGCAM      : 1800.0
#XTILTSTGE   : 0.0
#AZIMANGLE   : 0.0
#ELEVANGLE   : 29.0
#XPOSITION mm: 2.4460
#YPOSITION mm: 0.1345
#ZPOSITION mm: 13.5200
##OXINSTPT   : 2
##OXINSTSTROB: 67.51
#SPECTRUM    : Spectral Data Starts Here
-0.10000, 0.0
-0.06500, 3.0
-0.03000, 69.0
0.00500, 502.0
0.04000, 1022.0
0.07500, 784.0
0.11000, 190.0
0.14500, 69.0
0.18000, 63.0
0.21500, 78.0
0.25000, 117.0
0.28500, 123.0
0.32000, 87.0
0.35500, 84.0
0.39000, 140.0
0.42500, 273.0
0.46000, 1368.0
0.49500, 4525.0
0.53000, 6279.0
0.56500, 2769.0
0.60000, 495.0
0.63500, 114.0
0.67000, 99.0
0.70500, 101.0
0.74000, 124.0
0.77500, 153.0
0.81000, 156.0
0.84500, 161.0
0.88000, 160.0
0.91500, 187.0
0.95000, 192.0
0.98500, 187.0
1.02000, 190.0
1.05500, 183.0
1.09000, 198.0
1.12500, 204.0
1.16000, 178.0
1.19500, 206.0
1.23000, 190.0
1.26500, 210.0
1.30000, 202.0
1.33500, 175.0
1.37000, 189.0
1.40500, 220.0
1.44000, 184.0
1.47500, 219.0
1.51000, 237.0
1.54500, 231.0
1.58000, 244.0
1.61500, 329.0
1.65000, 1253.0
1.68500, 5325.0
1.72000, 12483.0
1.75500, 13940.0
1.79000, 7525.0
1.82500, 2452.0
1.86000, 798.0
1.89500, 338.0
1.93000, 143.0
1.96500, 100.0
2.00000, 89.0
2.03500, 88.0
2.07000, 92.0
2.10500, 89.0
2.14000, 97.0
2.17500, 91.0
2.21000, 104.0
2.24500, 121.0
2.28000, 137.0
2.31500, 157.0
2.35000, 119.0
2.38500, 120.0
2.42000, 89.0
2.45500, 87.0
2.49000, 78.0
2.52500, 82.0
2.56000, 81.0
2.59500, 74.0
2.63000, 71.0
2.66500, 69.0
2.70000, 76.0
2.73500, 66.0
2.77000, 76.0
2.80500, 66.0
2.84000, 65.0
2.87500, 55.0
2.91000, 59.0
2.94500, 77.0
2.98000, 63.0
3.01500, 65.0
3.05000, 68.0
3.08500, 66.0
3.12000, 61.0
3.15500, 58.0
3.19000, 55.0
3.22500, 47.0
3.26000, 80.0
3.29500, 59.0
3.33000, 63.0
3.36500, 63.0
3.40000, 65.0
3.43500, 69.0
3.47000, 80.0
3.50500, 77.0
3.54000, 64.0
3.57500, 54.0
3.61000, 55.0
3.64500, 48.0
3.68000, 48.0
3.71500, 41.0
3.75000, 59.0
3.78500, 47.0
3.82000, 49.0
3.85500, 42.0
3.89000, 54.0
3.92500, 44.0
3.96000, 34.0
3.99500, 52.0
4.03000, 44.0
4.06500, 39.0
4.10000, 41.0
4.13500, 40.0
4.17000, 51.0
4.20500, 34.0
4.24000, 39.0
4.27500, 27.0
4.31000, 33.0
4.34500, 33.0
4.38000, 36.0
4.41500, 39.0
4.45000, 40.0
4.48500, 35.0
4.52000, 38.0
4.55500, 28.0
4.59000, 33.0
4.62500, 27.0
4.66000, 30.0
4.69500, 39.0
4.73000, 30.0
4.76500, 31.0
4.80000, 25.0
4.83500, 34.0
4.87000, 33.0
4.90500, 31.0
4.94000, 24.0
4.97500, 22.0
5.01000, 25.0
5.04500, 37.0
5.08000, 26.0
5.11500, 28.0
5.15000, 29.0
5.18500, 32.0
5.22000, 30.0
5.25500, 35.0
5.29000, 31.0
5.32500, 25.0
5.36000, 26.0
5.39500, 23.0
5.43000, 27.0
5.46500, 30.0
5.50000, 25.0
5.53500, 26.0
5.57000, 24.0
5.60500, 23.0
5.64000, 28.0
5.67500, 15.0
5.71000, 16.0
5.74500, 27.0
5.78000, 15.0
5.81500, 26.0
5.85000, 11.0
5.88500, 22.0
5.92000, 17.0
5.95500, 18.0
5.99000, 14.0
6.02500, 26.0
6.06000, 18.0
6.09500, 15.0
6.13000, 14.0
6.16500, 11.0
6.20000, 13.0
6.23500, 8.0
6.27000, 19.0
6.30500, 18.0
6.34000, 18.0
6.37500, 20.0
6.41000, 12.0
6.44500, 19.0
6.48000, 7.0
6.51500, 17.0
6.55000, 12.0
6.58500, 7.0
6.62000, 9.0
6.65500, 9.0
6.69000, 14.0
6.72500, 17.0
6.76000, 13.0
6.79500, 16.0
6.83000, 16.0
6.86500, 15.0
6.90000, 15.0
6.93500, 15.0
6.97000, 12.0
7.00500, 6.0
7.04000, 15.0
7.07500, 8.0
7.11000, 7.0
7.14500, 9.0
7.18000, 6.0
7.21500, 8.0
7.25000, 10.0
7.28500, 12.0
7.32000, 7.0
7.35500, 9.0
7.39000, 7.0
7.42500, 4.0
7.46000, 10.0
7.49500, 13.0
7.53000, 12.0
7.56500, 3.0
7.60000, 9.0
7.63500, 13.0
7.67000, 14.0
7.70500, 12.0
7.74000, 4.0
7.77500, 10.0
7.81000, 3.0
7.84500, 10.0
7.88000, 7.0
7.91500, 5.0
7.95000, 5.0
7.98500, 3.0
8.02000, 11.0
8.05500, 7.0
8.09000, 9.0
8.12500, 4.0
8.16000, 6.0
8.19500, 6.0
8.23000, 7.0
8.26500, 4.0
8.30000, 4.0
8.33500, 4.0
8.37000, 7.0
8.40500, 3.0
8.44000, 5.0
8.47500, 5.0
8.51000, 5.0
8.54500, 0.0
8.58000, 4.0
8.61500, 2.0
8.65000, 4.0
8.68500, 1.0
8.72000, 8.0
8.75500, 4.0
8.79000, 1.0
8.82500, 1.0
8.86000, 1.0
8.89500, 1.0
8.93000, 0.0
8.96500, 3.0
9.00000, 2.0
9.03500, 3.0
9.07000, 0.0
9.10500, 1.0
9.14000, 2.0
9.17500, 3.0
9.21000, 2.0
9.24500, 1.0
9.28000, 2.0
9.31500, 3.0
9.35000, 2.0
9.38500, 2.0
9.42000, 0.0
9.45500, 3.0
9.49000, 3.0
9.52500, 0.0
9.56000, 1.0
9.59500, 0.0
9.63000, 3.0
9.66500, 1.0
9.70000, 2.0
9.73500, 2.0
9.77000, 0.0
9.80500, 2.0
9.84000, 0.0
9.87500, 0.0
9.91000, 0.0
9.94500, 0.0
9.98000, 0.0
10.01500, 0.0
10.05000, 0.0
10.08500, 0.0
10.12000, 0.0
10.13500, 0.0
#ENDOFDATA   :