File: Spectras 20250424/20250425_10K_N10_area2_1.txt
#FORMAT      : EMSA/MAS Spectral Data File
#VERSION     : 1.0
#TITLE       : 20250425_10K_N10_area2_1
#DATE        : 24-APR-2025
#TIME        : 10:07
#OWNER       :
#NPOINTS     : 2048.0
#NCOLUMNS    : 1.0
#XUNITS      : keV
#YUNITS      : counts
#DATATYPE    : XY
#XPERCHAN    : 0.005
#OFFSET      : -0.1
#SIGNALTYPE  : EDS
#CHOFFSET    : 20.0
#LIVETIME    : 60.0035
#REALTIME    : 61.7722
#BEAMKV      : 10.0
#MAGCAM      : 1700.0
#XTILTSTGE   : 0.0
#AZIMANGLE   : 0.0
#ELEVANGLE   : 29.0
#XPOSITION mm: -0.7575
#YPOSITION mm: 0.5895
#ZPOSITION mm: 13.5530
##OXINSTPT   : 2
##OXINSTSTROB: 67.55
#SPECTRUM    : Spectral Data Starts Here
-0.10000, 0.0
-0.06500, 4.0
-0.03000, 76.0
0.00500, 483.0
0.04000, 1059.0
0.07500, 777.0
0.11000, 222.0
0.14500, 187.0
0.18000, 192.0
0.21500, 153.0
0.25000, 148.0
0.28500, 159.0
0.32000, 79.0
0.35500, 79.0
0.39000, 91.0
0.42500, 214.0
0.46000, 946.0
0.49500, 3279.0
0.53000, 4348.0
0.56500, 1990.0
0.60000, 382.0
0.63500, 119.0
0.67000, 111.0
0.70500, 124.0
0.74000, 129.0
0.77500, 165.0
0.81000, 162.0
0.84500, 185.0
0.88000, 177.0
0.91500, 178.0
0.95000, 189.0
0.98500, 192.0
1.02000, 204.0
1.05500, 196.0
1.09000, 199.0
1.12500, 188.0
1.16000, 201.0
1.19500, 195.0
1.23000, 210.0
1.26500, 187.0
1.30000, 201.0
1.33500, 227.0
1.37000, 209.0
1.40500, 194.0
1.44000, 199.0
1.47500, 220.0
1.51000, 209.0
1.54500, 240.0
1.58000, 247.0
1.61500, 280.0
1.65000, 1056.0
1.68500, 4668.0
1.72000, 10851.0
1.75500, 12124.0
1.79000, 6743.0
1.82500, 2074.0
1.86000, 735.0
1.89500, 280.0
1.93000, 148.0
1.96500, 113.0
2.00000, 113.0
2.03500, 106.0
2.07000, 91.0
2.10500, 95.0
2.14000, 89.0
2.17500, 98.0
2.21000, 171.0
2.24500, 425.0
2.28000, 806.0
2.31500, 909.0
2.35000, 665.0
2.38500, 392.0
2.42000, 256.0
2.45500, 217.0
2.49000, 149.0
2.52500, 134.0
2.56000, 101.0
2.59500, 87.0
2.63000, 80.0
2.66500, 74.0
2.70000, 78.0
2.73500, 71.0
2.77000, 65.0
2.80500, 85.0
2.84000, 75.0
2.87500, 67.0
2.91000, 74.0
2.94500, 68.0
2.98000, 67.0
3.01500, 64.0
3.05000, 63.0
3.08500, 69.0
3.12000, 66.0
3.15500, 50.0
3.19000, 64.0
3.22500, 73.0
3.26000, 57.0
3.29500, 57.0
3.33000, 67.0
3.36500, 58.0
3.40000, 71.0
3.43500, 69.0
3.47000, 67.0
3.50500, 63.0
3.54000, 71.0
3.57500, 57.0
3.61000, 46.0
3.64500, 49.0
3.68000, 48.0
3.71500, 55.0
3.75000, 57.0
3.78500, 46.0
3.82000, 51.0
3.85500, 36.0
3.89000, 47.0
3.92500, 54.0
3.96000, 56.0
3.99500, 50.0
4.03000, 48.0
4.06500, 50.0
4.10000, 38.0
4.13500, 44.0
4.17000, 44.0
4.20500, 38.0
4.24000, 38.0
4.27500, 42.0
4.31000, 22.0
4.34500, 36.0
4.38000, 37.0
4.41500, 40.0
4.45000, 34.0
4.48500, 38.0
4.52000, 33.0
4.55500, 30.0
4.59000, 35.0
4.62500, 35.0
4.66000, 31.0
4.69500, 32.0
4.73000, 37.0
4.76500, 24.0
4.80000, 41.0
4.83500, 33.0
4.87000, 30.0
4.90500, 31.0
4.94000, 35.0
4.97500, 30.0
5.01000, 29.0
5.04500, 27.0
5.08000, 22.0
5.11500, 25.0
5.15000, 32.0
5.18500, 30.0
5.22000, 24.0
5.25500, 33.0
5.29000, 25.0
5.32500, 20.0
5.36000, 31.0
5.39500, 27.0
5.43000, 26.0
5.46500, 37.0
5.50000, 25.0
5.53500, 18.0
5.57000, 19.0
5.60500, 24.0
5.64000, 13.0
5.67500, 25.0
5.71000, 19.0
5.74500, 25.0
5.78000, 26.0
5.81500, 18.0
5.85000, 25.0
5.88500, 21.0
5.92000, 20.0
5.95500, 27.0
5.99000, 15.0
6.02500, 32.0
6.06000, 17.0
6.09500, 10.0
6.13000, 15.0
6.16500, 20.0
6.20000, 20.0
6.23500, 18.0
6.27000, 18.0
6.30500, 17.0
6.34000, 23.0
6.37500, 23.0
6.41000, 16.0
6.44500, 22.0
6.48000, 10.0
6.51500, 18.0
6.55000, 12.0
6.58500, 14.0
6.62000, 22.0
6.65500, 18.0
6.69000, 17.0
6.72500, 23.0
6.76000, 18.0
6.79500, 17.0
6.83000, 9.0
6.86500, 9.0
6.90000, 16.0
6.93500, 14.0
6.97000, 8.0
7.00500, 17.0
7.04000, 13.0
7.07500, 13.0
7.11000, 8.0
7.14500, 9.0
7.18000, 10.0
7.21500, 14.0
7.25000, 7.0
7.28500, 11.0
7.32000, 12.0
7.35500, 6.0
7.39000, 10.0
7.42500, 11.0
7.46000, 11.0
7.49500, 11.0
7.53000, 7.0
7.56500, 9.0
7.60000, 8.0
7.63500, 8.0
7.67000, 6.0
7.70500, 8.0
7.74000, 11.0
7.77500, 11.0
7.81000, 17.0
7.84500, 7.0
7.88000, 8.0
7.91500, 18.0
7.95000, 8.0
7.98500, 3.0
8.02000, 4.0
8.05500, 5.0
8.09000, 5.0
8.12500, 4.0
8.16000, 5.0
8.19500, 7.0
8.23000, 9.0
8.26500, 7.0
8.30000, 4.0
8.33500, 7.0
8.37000, 7.0
8.40500, 3.0
8.44000, 8.0
8.47500, 8.0
8.51000, 7.0
8.54500, 8.0
8.58000, 7.0
8.61500, 2.0
8.65000, 5.0
8.68500, 10.0
8.72000, 5.0
8.75500, 4.0
8.79000, 5.0
8.82500, 3.0
8.86000, 6.0
8.89500, 4.0
8.93000, 5.0
8.96500, 2.0
9.00000, 4.0
9.03500, 6.0
9.07000, 8.0
9.10500, 6.0
9.14000, 3.0
9.17500, 0.0
9.21000, 1.0
9.24500, 4.0
9.28000, 6.0
9.31500, 0.0
9.35000, 2.0
9.38500, 2.0
9.42000, 3.0
9.45500, 0.0
9.49000, 7.0
9.52500, 3.0
9.56000, 1.0
9.59500, 2.0
9.63000, 4.0
9.66500, 4.0
9.70000, 1.0
9.73500, 2.0
9.77000, 4.0
9.80500, 2.0
9.84000, 6.0
9.87500, 0.0
9.91000, 1.0
9.94500, 3.0
9.98000, 1.0
10.01500, 1.0
10.05000, 0.0
10.08500, 0.0
10.12000, 0.0
10.13500, 0.0
#ENDOFDATA   :