File: Spectras 20250424/20250425_10K_H12_2.txt
#FORMAT      : EMSA/MAS Spectral Data File
#VERSION     : 1.0
#TITLE       : 20250425_10K_H12_2
#DATE        : 24-APR-2025
#TIME        : 09:35
#OWNER       :
#NPOINTS     : 2048.0
#NCOLUMNS    : 1.0
#XUNITS      : keV
#YUNITS      : counts
#DATATYPE    : XY
#XPERCHAN    : 0.005
#OFFSET      : -0.1
#SIGNALTYPE  : EDS
#CHOFFSET    : 20.0
#LIVETIME    : 60.0
#REALTIME    : 61.4762
#BEAMKV      : 10.0
#MAGCAM      : 4000.0
#XTILTSTGE   : 0.0
#AZIMANGLE   : 0.0
#ELEVANGLE   : 29.0
#XPOSITION mm: 0.7570
#YPOSITION mm: 0.1853
#ZPOSITION mm: 13.4437
##OXINSTPT   : 2
##OXINSTSTROB: 67.48
##OXINSTELEMS: 42,16,14,8
##OXINSTLABEL: 42, 2.293, Mo
##OXINSTLABEL: 42, 2.395, Mo
##OXINSTLABEL: 42, 2.120, Mo
##OXINSTLABEL: 42, 2.831, Mo
##OXINSTLABEL: 42, 2.016, Mo
##OXINSTLABEL: 42, 0.193, Mo
##OXINSTLABEL: 16, 2.308, S
##OXINSTLABEL: 16, 2.464, S
##OXINSTLABEL: 14, 1.740, Si
##OXINSTLABEL: 8, 0.525, O
#SPECTRUM    : Spectral Data Starts Here
-0.10000, 0.0
-0.06500, 2.0
-0.03000, 74.0
0.00500, 483.0
0.04000, 1057.0
0.07500, 773.0
0.11000, 311.0
0.14500, 387.0
0.18000, 369.0
0.21500, 297.0
0.25000, 399.0
0.28500, 443.0
0.32000, 187.0
0.35500, 96.0
0.39000, 102.0
0.42500, 119.0
0.46000, 325.0
0.49500, 919.0
0.53000, 1345.0
0.56500, 696.0
0.60000, 207.0
0.63500, 136.0
0.67000, 115.0
0.70500, 150.0
0.74000, 147.0
0.77500, 164.0
0.81000, 161.0
0.84500, 178.0
0.88000, 184.0
0.91500, 195.0
0.95000, 178.0
0.98500, 199.0
1.02000, 208.0
1.05500, 191.0
1.09000, 198.0
1.12500, 214.0
1.16000, 202.0
1.19500, 184.0
1.23000, 192.0
1.26500, 205.0
1.30000, 200.0
1.33500, 195.0
1.37000, 202.0
1.40500, 195.0
1.44000, 206.0
1.47500, 212.0
1.51000, 222.0
1.54500, 190.0
1.58000, 194.0
1.61500, 250.0
1.65000, 739.0
1.68500, 3097.0
1.72000, 6987.0
1.75500, 7806.0
1.79000, 4260.0
1.82500, 1481.0
1.86000, 510.0
1.89500, 246.0
1.93000, 127.0
1.96500, 143.0
2.00000, 175.0
2.03500, 157.0
2.07000, 123.0
2.10500, 127.0
2.14000, 130.0
2.17500, 165.0
2.21000, 353.0
2.24500, 996.0
2.28000, 2074.0
2.31500, 2410.0
2.35000, 1788.0
2.38500, 969.0
2.42000, 586.0
2.45500, 402.0
2.49000, 323.0
2.52500, 221.0
2.56000, 137.0
2.59500, 100.0
2.63000, 90.0
2.66500, 89.0
2.70000, 68.0
2.73500, 94.0
2.77000, 80.0
2.80500, 82.0
2.84000, 87.0
2.87500, 84.0
2.91000, 56.0
2.94500, 63.0
2.98000, 61.0
3.01500, 70.0
3.05000, 54.0
3.08500, 68.0
3.12000, 81.0
3.15500, 66.0
3.19000, 61.0
3.22500, 57.0
3.26000, 58.0
3.29500, 66.0
3.33000, 61.0
3.36500, 54.0
3.40000, 57.0
3.43500, 76.0
3.47000, 63.0
3.50500, 64.0
3.54000, 65.0
3.57500, 56.0
3.61000, 64.0
3.64500, 50.0
3.68000, 47.0
3.71500, 48.0
3.75000, 45.0
3.78500, 50.0
3.82000, 52.0
3.85500, 43.0
3.89000, 47.0
3.92500, 42.0
3.96000, 50.0
3.99500, 65.0
4.03000, 43.0
4.06500, 46.0
4.10000, 46.0
4.13500, 54.0
4.17000, 36.0
4.20500, 42.0
4.24000, 47.0
4.27500, 38.0
4.31000, 54.0
4.34500, 37.0
4.38000, 47.0
4.41500, 49.0
4.45000, 34.0
4.48500, 40.0
4.52000, 38.0
4.55500, 41.0
4.59000, 39.0
4.62500, 33.0
4.66000, 27.0
4.69500, 29.0
4.73000, 29.0
4.76500, 32.0
4.80000, 37.0
4.83500, 35.0
4.87000, 28.0
4.90500, 31.0
4.94000, 33.0
4.97500, 32.0
5.01000, 27.0
5.04500, 39.0
5.08000, 24.0
5.11500, 28.0
5.15000, 23.0
5.18500, 31.0
5.22000, 31.0
5.25500, 37.0
5.29000, 30.0
5.32500, 33.0
5.36000, 30.0
5.39500, 33.0
5.43000, 31.0
5.46500, 26.0
5.50000, 37.0
5.53500, 18.0
5.57000, 25.0
5.60500, 31.0
5.64000, 12.0
5.67500, 25.0
5.71000, 21.0
5.74500, 28.0
5.78000, 15.0
5.81500, 34.0
5.85000, 25.0
5.88500, 19.0
5.92000, 19.0
5.95500, 31.0
5.99000, 23.0
6.02500, 17.0
6.06000, 22.0
6.09500, 22.0
6.13000, 16.0
6.16500, 21.0
6.20000, 20.0
6.23500, 17.0
6.27000, 21.0
6.30500, 11.0
6.34000, 21.0
6.37500, 20.0
6.41000, 16.0
6.44500, 13.0
6.48000, 16.0
6.51500, 19.0
6.55000, 21.0
6.58500, 14.0
6.62000, 12.0
6.65500, 20.0
6.69000, 15.0
6.72500, 24.0
6.76000, 22.0
6.79500, 17.0
6.83000, 14.0
6.86500, 12.0
6.90000, 11.0
6.93500, 10.0
6.97000, 11.0
7.00500, 16.0
7.04000, 12.0
7.07500, 20.0
7.11000, 24.0
7.14500, 17.0
7.18000, 11.0
7.21500, 9.0
7.25000, 11.0
7.28500, 14.0
7.32000, 9.0
7.35500, 14.0
7.39000, 12.0
7.42500, 12.0
7.46000, 12.0
7.49500, 7.0
7.53000, 7.0
7.56500, 10.0
7.60000, 12.0
7.63500, 9.0
7.67000, 8.0
7.70500, 9.0
7.74000, 14.0
7.77500, 15.0
7.81000, 10.0
7.84500, 12.0
7.88000, 6.0
7.91500, 11.0
7.95000, 9.0
7.98500, 8.0
8.02000, 8.0
8.05500, 12.0
8.09000, 10.0
8.12500, 11.0
8.16000, 3.0
8.19500, 3.0
8.23000, 16.0
8.26500, 10.0
8.30000, 4.0
8.33500, 10.0
8.37000, 4.0
8.40500, 5.0
8.44000, 6.0
8.47500, 7.0
8.51000, 8.0
8.54500, 9.0
8.58000, 5.0
8.61500, 7.0
8.65000, 3.0
8.68500, 3.0
8.72000, 8.0
8.75500, 8.0
8.79000, 14.0
8.82500, 9.0
8.86000, 9.0
8.89500, 9.0
8.93000, 4.0
8.96500, 6.0
9.00000, 8.0
9.03500, 5.0
9.07000, 3.0
9.10500, 5.0
9.14000, 5.0
9.17500, 3.0
9.21000, 5.0
9.24500, 7.0
9.28000, 1.0
9.31500, 5.0
9.35000, 3.0
9.38500, 7.0
9.42000, 6.0
9.45500, 4.0
9.49000, 6.0
9.52500, 11.0
9.56000, 3.0
9.59500, 1.0
9.63000, 2.0
9.66500, 2.0
9.70000, 4.0
9.73500, 2.0
9.77000, 3.0
9.80500, 3.0
9.84000, 5.0
9.87500, 1.0
9.91000, 1.0
9.94500, 3.0
9.98000, 2.0
10.01500, 1.0
10.05000, 0.0
10.08500, 1.0
10.12000, 1.0
10.13500, 0.0
#ENDOFDATA   :