File: Spectras 20250424/20250425_10K_C6_3.txt
#FORMAT      : EMSA/MAS Spectral Data File
#VERSION     : 1.0
#TITLE       : 20250425_10K_C6_3
#DATE        : 24-APR-2025
#TIME        : 10:25
#OWNER       :
#NPOINTS     : 2048.0
#NCOLUMNS    : 1.0
#XUNITS      : keV
#YUNITS      : counts
#DATATYPE    : XY
#XPERCHAN    : 0.005
#OFFSET      : -0.1
#SIGNALTYPE  : EDS
#CHOFFSET    : 20.0
#LIVETIME    : 60.0013
#REALTIME    : 61.8638
#BEAMKV      : 10.0
#MAGCAM      : 700.0
#XTILTSTGE   : 0.0
#AZIMANGLE   : 0.0
#ELEVANGLE   : 29.0
#XPOSITION mm: 1.8685
#YPOSITION mm: -0.6548
#ZPOSITION mm: 13.5200
##OXINSTPT   : 2
##OXINSTSTROB: 67.50
#SPECTRUM    : Spectral Data Starts Here
-0.10000, 0.0
-0.06500, 3.0
-0.03000, 70.0
0.00500, 477.0
0.04000, 1060.0
0.07500, 739.0
0.11000, 199.0
0.14500, 91.0
0.18000, 96.0
0.21500, 95.0
0.25000, 115.0
0.28500, 136.0
0.32000, 86.0
0.35500, 85.0
0.39000, 139.0
0.42500, 261.0
0.46000, 1267.0
0.49500, 4254.0
0.53000, 5742.0
0.56500, 2619.0
0.60000, 439.0
0.63500, 105.0
0.67000, 107.0
0.70500, 113.0
0.74000, 136.0
0.77500, 153.0
0.81000, 175.0
0.84500, 148.0
0.88000, 158.0
0.91500, 186.0
0.95000, 183.0
0.98500, 192.0
1.02000, 181.0
1.05500, 199.0
1.09000, 194.0
1.12500, 194.0
1.16000, 182.0
1.19500, 196.0
1.23000, 195.0
1.26500, 187.0
1.30000, 186.0
1.33500, 197.0
1.37000, 192.0
1.40500, 197.0
1.44000, 219.0
1.47500, 195.0
1.51000, 190.0
1.54500, 235.0
1.58000, 224.0
1.61500, 303.0
1.65000, 1156.0
1.68500, 5123.0
1.72000, 12037.0
1.75500, 13397.0
1.79000, 7330.0
1.82500, 2318.0
1.86000, 755.0
1.89500, 330.0
1.93000, 141.0
1.96500, 98.0
2.00000, 84.0
2.03500, 90.0
2.07000, 105.0
2.10500, 88.0
2.14000, 87.0
2.17500, 116.0
2.21000, 128.0
2.24500, 233.0
2.28000, 349.0
2.31500, 404.0
2.35000, 292.0
2.38500, 190.0
2.42000, 150.0
2.45500, 122.0
2.49000, 100.0
2.52500, 116.0
2.56000, 85.0
2.59500, 84.0
2.63000, 96.0
2.66500, 76.0
2.70000, 77.0
2.73500, 70.0
2.77000, 65.0
2.80500, 72.0
2.84000, 73.0
2.87500, 73.0
2.91000, 56.0
2.94500, 68.0
2.98000, 76.0
3.01500, 59.0
3.05000, 66.0
3.08500, 69.0
3.12000, 51.0
3.15500, 79.0
3.19000, 62.0
3.22500, 61.0
3.26000, 53.0
3.29500, 69.0
3.33000, 49.0
3.36500, 57.0
3.40000, 65.0
3.43500, 74.0
3.47000, 85.0
3.50500, 75.0
3.54000, 59.0
3.57500, 60.0
3.61000, 54.0
3.64500, 62.0
3.68000, 41.0
3.71500, 48.0
3.75000, 55.0
3.78500, 43.0
3.82000, 46.0
3.85500, 50.0
3.89000, 46.0
3.92500, 44.0
3.96000, 43.0
3.99500, 45.0
4.03000, 53.0
4.06500, 47.0
4.10000, 43.0
4.13500, 44.0
4.17000, 28.0
4.20500, 42.0
4.24000, 35.0
4.27500, 42.0
4.31000, 42.0
4.34500, 32.0
4.38000, 32.0
4.41500, 34.0
4.45000, 31.0
4.48500, 39.0
4.52000, 34.0
4.55500, 41.0
4.59000, 37.0
4.62500, 31.0
4.66000, 31.0
4.69500, 31.0
4.73000, 30.0
4.76500, 39.0
4.80000, 31.0
4.83500, 32.0
4.87000, 27.0
4.90500, 31.0
4.94000, 36.0
4.97500, 24.0
5.01000, 24.0
5.04500, 29.0
5.08000, 27.0
5.11500, 29.0
5.15000, 28.0
5.18500, 36.0
5.22000, 23.0
5.25500, 23.0
5.29000, 28.0
5.32500, 13.0
5.36000, 20.0
5.39500, 21.0
5.43000, 20.0
5.46500, 18.0
5.50000, 26.0
5.53500, 28.0
5.57000, 24.0
5.60500, 24.0
5.64000, 21.0
5.67500, 21.0
5.71000, 18.0
5.74500, 18.0
5.78000, 23.0
5.81500, 20.0
5.85000, 16.0
5.88500, 29.0
5.92000, 17.0
5.95500, 18.0
5.99000, 14.0
6.02500, 10.0
6.06000, 23.0
6.09500, 26.0
6.13000, 10.0
6.16500, 18.0
6.20000, 21.0
6.23500, 13.0
6.27000, 14.0
6.30500, 12.0
6.34000, 21.0
6.37500, 11.0
6.41000, 26.0
6.44500, 12.0
6.48000, 12.0
6.51500, 14.0
6.55000, 10.0
6.58500, 10.0
6.62000, 14.0
6.65500, 13.0
6.69000, 14.0
6.72500, 13.0
6.76000, 15.0
6.79500, 6.0
6.83000, 11.0
6.86500, 16.0
6.90000, 11.0
6.93500, 19.0
6.97000, 10.0
7.00500, 17.0
7.04000, 13.0
7.07500, 6.0
7.11000, 15.0
7.14500, 9.0
7.18000, 7.0
7.21500, 13.0
7.25000, 7.0
7.28500, 11.0
7.32000, 8.0
7.35500, 9.0
7.39000, 9.0
7.42500, 5.0
7.46000, 10.0
7.49500, 9.0
7.53000, 5.0
7.56500, 7.0
7.60000, 8.0
7.63500, 5.0
7.67000, 11.0
7.70500, 5.0
7.74000, 7.0
7.77500, 10.0
7.81000, 9.0
7.84500, 7.0
7.88000, 7.0
7.91500, 6.0
7.95000, 7.0
7.98500, 7.0
8.02000, 6.0
8.05500, 5.0
8.09000, 6.0
8.12500, 3.0
8.16000, 9.0
8.19500, 6.0
8.23000, 6.0
8.26500, 3.0
8.30000, 9.0
8.33500, 2.0
8.37000, 6.0
8.40500, 5.0
8.44000, 5.0
8.47500, 7.0
8.51000, 3.0
8.54500, 7.0
8.58000, 3.0
8.61500, 5.0
8.65000, 6.0
8.68500, 5.0
8.72000, 3.0
8.75500, 2.0
8.79000, 7.0
8.82500, 2.0
8.86000, 5.0
8.89500, 2.0
8.93000, 8.0
8.96500, 3.0
9.00000, 4.0
9.03500, 2.0
9.07000, 2.0
9.10500, 3.0
9.14000, 3.0
9.17500, 2.0
9.21000, 5.0
9.24500, 5.0
9.28000, 4.0
9.31500, 5.0
9.35000, 0.0
9.38500, 4.0
9.42000, 1.0
9.45500, 1.0
9.49000, 3.0
9.52500, 1.0
9.56000, 2.0
9.59500, 3.0
9.63000, 0.0
9.66500, 1.0
9.70000, 1.0
9.73500, 1.0
9.77000, 3.0
9.80500, 0.0
9.84000, 0.0
9.87500, 2.0
9.91000, 1.0
9.94500, 1.0
9.98000, 0.0
10.01500, 0.0
10.05000, 0.0
10.08500, 0.0
10.12000, 0.0
10.13500, 0.0
#ENDOFDATA   :