File: Spectras 20250424/20250425_5K_F1_Area2_4.txt
#FORMAT      : EMSA/MAS Spectral Data File
#VERSION     : 1.0
#TITLE       : 20250425_5K_F1_Area2_4
#DATE        : 24-APR-2025
#TIME        : 11:23
#OWNER       :
#NPOINTS     : 2048.0
#NCOLUMNS    : 1.0
#XUNITS      : keV
#YUNITS      : counts
#DATATYPE    : XY
#XPERCHAN    : 0.005
#OFFSET      : -0.1
#SIGNALTYPE  : EDS
#CHOFFSET    : 20.0
#LIVETIME    : 60.0
#REALTIME    : 60.7804
#BEAMKV      : 5.0
#MAGCAM      : 15000.0
#XTILTSTGE   : 0.0
#AZIMANGLE   : 0.0
#ELEVANGLE   : 29.0
#XPOSITION mm: -0.7335
#YPOSITION mm: 0.5740
#ZPOSITION mm: 13.5306
##OXINSTPT   : 2
##OXINSTSTROB: 67.51
#SPECTRUM    : Spectral Data Starts Here
-0.10000, 0.0
-0.06500, 3.0
-0.03000, 65.0
0.00500, 452.0
0.04000, 1050.0
0.07500, 758.0
0.11000, 184.0
0.14500, 65.0
0.18000, 72.0
0.21500, 91.0
0.25000, 164.0
0.28500, 134.0
0.32000, 98.0
0.35500, 84.0
0.39000, 125.0
0.42500, 274.0
0.46000, 1250.0
0.49500, 4201.0
0.53000, 5636.0
0.56500, 2577.0
0.60000, 452.0
0.63500, 101.0
0.67000, 81.0
0.70500, 95.0
0.74000, 107.0
0.77500, 93.0
0.81000, 92.0
0.84500, 103.0
0.88000, 96.0
0.91500, 102.0
0.95000, 90.0
0.98500, 110.0
1.02000, 108.0
1.05500, 100.0
1.09000, 91.0
1.12500, 89.0
1.16000, 88.0
1.19500, 92.0
1.23000, 83.0
1.26500, 77.0
1.30000, 72.0
1.33500, 66.0
1.37000, 79.0
1.40500, 68.0
1.44000, 88.0
1.47500, 75.0
1.51000, 76.0
1.54500, 68.0
1.58000, 87.0
1.61500, 82.0
1.65000, 215.0
1.68500, 820.0
1.72000, 1938.0
1.75500, 2230.0
1.79000, 1237.0
1.82500, 411.0
1.86000, 156.0
1.89500, 67.0
1.93000, 47.0
1.96500, 39.0
2.00000, 42.0
2.03500, 32.0
2.07000, 35.0
2.10500, 34.0
2.14000, 41.0
2.17500, 29.0
2.21000, 32.0
2.24500, 43.0
2.28000, 48.0
2.31500, 32.0
2.35000, 40.0
2.38500, 29.0
2.42000, 31.0
2.45500, 38.0
2.49000, 22.0
2.52500, 34.0
2.56000, 25.0
2.59500, 34.0
2.63000, 26.0
2.66500, 25.0
2.70000, 20.0
2.73500, 24.0
2.77000, 26.0
2.80500, 22.0
2.84000, 16.0
2.87500, 26.0
2.91000, 19.0
2.94500, 17.0
2.98000, 23.0
3.01500, 18.0
3.05000, 19.0
3.08500, 12.0
3.12000, 17.0
3.15500, 15.0
3.19000, 18.0
3.22500, 18.0
3.26000, 16.0
3.29500, 17.0
3.33000, 9.0
3.36500, 15.0
3.40000, 15.0
3.43500, 9.0
3.47000, 10.0
3.50500, 14.0
3.54000, 10.0
3.57500, 14.0
3.61000, 14.0
3.64500, 11.0
3.68000, 9.0
3.71500, 10.0
3.75000, 7.0
3.78500, 5.0
3.82000, 7.0
3.85500, 11.0
3.89000, 6.0
3.92500, 10.0
3.96000, 11.0
3.99500, 6.0
4.03000, 10.0
4.06500, 3.0
4.10000, 1.0
4.13500, 12.0
4.17000, 3.0
4.20500, 7.0
4.24000, 4.0
4.27500, 5.0
4.31000, 4.0
4.34500, 4.0
4.38000, 3.0
4.41500, 5.0
4.45000, 1.0
4.48500, 2.0
4.52000, 3.0
4.55500, 7.0
4.59000, 1.0
4.62500, 2.0
4.66000, 4.0
4.69500, 1.0
4.73000, 3.0
4.76500, 2.0
4.80000, 2.0
4.83500, 2.0
4.87000, 2.0
4.90500, 0.0
4.94000, 0.0
4.97500, 0.0
5.01000, 0.0
5.04500, 0.0
5.08000, 1.0
5.11500, 0.0
5.15000, 0.0
5.18500, 0.0
5.22000, 0.0
5.25500, 0.0
5.29000, 0.0
5.32500, 0.0
5.36000, 0.0
5.39500, 0.0
5.43000, 0.0
5.46500, 0.0
5.50000, 0.0
5.53500, 0.0
5.57000, 0.0
5.60500, 0.0
5.64000, 0.0
5.67500, 0.0
5.71000, 0.0
5.74500, 0.0
5.78000, 0.0
5.81500, 0.0
5.85000, 0.0
5.88500, 0.0
5.92000, 0.0
5.95500, 0.0
5.99000, 0.0
6.02500, 0.0
6.06000, 0.0
6.09500, 0.0
6.13000, 0.0
6.16500, 0.0
6.20000, 0.0
6.23500, 0.0
6.27000, 0.0
6.30500, 0.0
6.34000, 0.0
6.37500, 0.0
6.41000, 0.0
6.44500, 0.0
6.48000, 0.0
6.51500, 0.0
6.55000, 0.0
6.58500, 0.0
6.62000, 0.0
6.65500, 0.0
6.69000, 0.0
6.72500, 0.0
6.76000, 0.0
6.79500, 0.0
6.83000, 0.0
6.86500, 0.0
6.90000, 0.0
6.93500, 0.0
6.97000, 0.0
7.00500, 0.0
7.04000, 0.0
7.07500, 0.0
7.11000, 0.0
7.14500, 0.0
7.18000, 0.0
7.21500, 0.0
7.25000, 0.0
7.28500, 0.0
7.32000, 0.0
7.35500, 0.0
7.39000, 0.0
7.42500, 0.0
7.46000, 0.0
7.49500, 0.0
7.53000, 0.0
7.56500, 0.0
7.60000, 0.0
7.63500, 0.0
7.67000, 0.0
7.70500, 0.0
7.74000, 0.0
7.77500, 0.0
7.81000, 0.0
7.84500, 0.0
7.88000, 0.0
7.91500, 0.0
7.95000, 0.0
7.98500, 0.0
8.02000, 0.0
8.05500, 0.0
8.09000, 0.0
8.12500, 0.0
8.16000, 0.0
8.19500, 0.0
8.23000, 0.0
8.26500, 0.0
8.30000, 0.0
8.33500, 0.0
8.37000, 0.0
8.40500, 0.0
8.44000, 0.0
8.47500, 0.0
8.51000, 0.0
8.54500, 0.0
8.58000, 0.0
8.61500, 0.0
8.65000, 0.0
8.68500, 0.0
8.72000, 0.0
8.75500, 0.0
8.79000, 0.0
8.82500, 0.0
8.86000, 0.0
8.89500, 0.0
8.93000, 0.0
8.96500, 0.0
9.00000, 0.0
9.03500, 0.0
9.07000, 0.0
9.10500, 0.0
9.14000, 0.0
9.17500, 0.0
9.21000, 0.0
9.24500, 0.0
9.28000, 0.0
9.31500, 0.0
9.35000, 0.0
9.38500, 0.0
9.42000, 0.0
9.45500, 0.0
9.49000, 0.0
9.52500, 0.0
9.56000, 0.0
9.59500, 0.0
9.63000, 0.0
9.66500, 0.0
9.70000, 0.0
9.73500, 0.0
9.77000, 0.0
9.80500, 0.0
9.84000, 0.0
9.87500, 0.0
9.91000, 0.0
9.94500, 0.0
9.98000, 0.0
10.01500, 0.0
10.05000, 0.0
10.08500, 0.0
10.12000, 0.0
10.13500, 0.0
#ENDOFDATA   :