File: Spectras 20250424/20250425_10K_B9_1.txt
#FORMAT      : EMSA/MAS Spectral Data File
#VERSION     : 1.0
#TITLE       : 20250425_10K_B9_1
#DATE        : 24-APR-2025
#TIME        : 10:18
#OWNER       :
#NPOINTS     : 2048.0
#NCOLUMNS    : 1.0
#XUNITS      : keV
#YUNITS      : counts
#DATATYPE    : XY
#XPERCHAN    : 0.005
#OFFSET      : -0.1
#SIGNALTYPE  : EDS
#CHOFFSET    : 20.0
#LIVETIME    : 60.0
#REALTIME    : 61.8551
#BEAMKV      : 10.0
#MAGCAM      : 3300.0
#XTILTSTGE   : 0.0
#AZIMANGLE   : 0.0
#ELEVANGLE   : 29.0
#XPOSITION mm: 1.4805
#YPOSITION mm: -1.5293
#ZPOSITION mm: 13.5200
##OXINSTPT   : 2
##OXINSTSTROB: 67.62
#SPECTRUM    : Spectral Data Starts Here
-0.10000, 0.0
-0.06500, 2.0
-0.03000, 67.0
0.00500, 480.0
0.04000, 1036.0
0.07500, 707.0
0.11000, 198.0
0.14500, 104.0
0.18000, 83.0
0.21500, 100.0
0.25000, 131.0
0.28500, 130.0
0.32000, 96.0
0.35500, 78.0
0.39000, 134.0
0.42500, 252.0
0.46000, 1189.0
0.49500, 4213.0
0.53000, 5715.0
0.56500, 2547.0
0.60000, 472.0
0.63500, 113.0
0.67000, 101.0
0.70500, 131.0
0.74000, 133.0
0.77500, 151.0
0.81000, 167.0
0.84500, 160.0
0.88000, 157.0
0.91500, 183.0
0.95000, 160.0
0.98500, 182.0
1.02000, 184.0
1.05500, 173.0
1.09000, 189.0
1.12500, 196.0
1.16000, 186.0
1.19500, 184.0
1.23000, 184.0
1.26500, 190.0
1.30000, 180.0
1.33500, 204.0
1.37000, 201.0
1.40500, 187.0
1.44000, 198.0
1.47500, 194.0
1.51000, 223.0
1.54500, 239.0
1.58000, 249.0
1.61500, 303.0
1.65000, 1140.0
1.68500, 5043.0
1.72000, 12034.0
1.75500, 13507.0
1.79000, 7175.0
1.82500, 2349.0
1.86000, 771.0
1.89500, 307.0
1.93000, 153.0
1.96500, 94.0
2.00000, 100.0
2.03500, 102.0
2.07000, 98.0
2.10500, 83.0
2.14000, 98.0
2.17500, 96.0
2.21000, 122.0
2.24500, 214.0
2.28000, 355.0
2.31500, 421.0
2.35000, 292.0
2.38500, 167.0
2.42000, 150.0
2.45500, 118.0
2.49000, 109.0
2.52500, 91.0
2.56000, 89.0
2.59500, 70.0
2.63000, 96.0
2.66500, 63.0
2.70000, 76.0
2.73500, 75.0
2.77000, 75.0
2.80500, 68.0
2.84000, 85.0
2.87500, 69.0
2.91000, 88.0
2.94500, 79.0
2.98000, 61.0
3.01500, 65.0
3.05000, 70.0
3.08500, 59.0
3.12000, 79.0
3.15500, 69.0
3.19000, 63.0
3.22500, 57.0
3.26000, 63.0
3.29500, 72.0
3.33000, 57.0
3.36500, 67.0
3.40000, 59.0
3.43500, 75.0
3.47000, 80.0
3.50500, 70.0
3.54000, 62.0
3.57500, 67.0
3.61000, 40.0
3.64500, 52.0
3.68000, 61.0
3.71500, 39.0
3.75000, 44.0
3.78500, 49.0
3.82000, 44.0
3.85500, 42.0
3.89000, 44.0
3.92500, 54.0
3.96000, 66.0
3.99500, 51.0
4.03000, 49.0
4.06500, 43.0
4.10000, 43.0
4.13500, 41.0
4.17000, 46.0
4.20500, 38.0
4.24000, 42.0
4.27500, 35.0
4.31000, 45.0
4.34500, 36.0
4.38000, 38.0
4.41500, 44.0
4.45000, 28.0
4.48500, 31.0
4.52000, 32.0
4.55500, 28.0
4.59000, 30.0
4.62500, 30.0
4.66000, 46.0
4.69500, 29.0
4.73000, 25.0
4.76500, 32.0
4.80000, 25.0
4.83500, 30.0
4.87000, 34.0
4.90500, 39.0
4.94000, 33.0
4.97500, 25.0
5.01000, 28.0
5.04500, 27.0
5.08000, 25.0
5.11500, 25.0
5.15000, 34.0
5.18500, 18.0
5.22000, 30.0
5.25500, 30.0
5.29000, 24.0
5.32500, 28.0
5.36000, 24.0
5.39500, 24.0
5.43000, 17.0
5.46500, 28.0
5.50000, 27.0
5.53500, 17.0
5.57000, 19.0
5.60500, 24.0
5.64000, 24.0
5.67500, 23.0
5.71000, 24.0
5.74500, 19.0
5.78000, 22.0
5.81500, 11.0
5.85000, 16.0
5.88500, 18.0
5.92000, 20.0
5.95500, 15.0
5.99000, 25.0
6.02500, 19.0
6.06000, 14.0
6.09500, 13.0
6.13000, 19.0
6.16500, 22.0
6.20000, 12.0
6.23500, 15.0
6.27000, 18.0
6.30500, 23.0
6.34000, 17.0
6.37500, 18.0
6.41000, 8.0
6.44500, 15.0
6.48000, 21.0
6.51500, 10.0
6.55000, 15.0
6.58500, 3.0
6.62000, 13.0
6.65500, 16.0
6.69000, 11.0
6.72500, 13.0
6.76000, 10.0
6.79500, 11.0
6.83000, 6.0
6.86500, 11.0
6.90000, 12.0
6.93500, 14.0
6.97000, 12.0
7.00500, 7.0
7.04000, 14.0
7.07500, 6.0
7.11000, 10.0
7.14500, 14.0
7.18000, 7.0
7.21500, 13.0
7.25000, 9.0
7.28500, 8.0
7.32000, 12.0
7.35500, 11.0
7.39000, 10.0
7.42500, 9.0
7.46000, 8.0
7.49500, 10.0
7.53000, 0.0
7.56500, 7.0
7.60000, 7.0
7.63500, 15.0
7.67000, 12.0
7.70500, 9.0
7.74000, 4.0
7.77500, 9.0
7.81000, 5.0
7.84500, 8.0
7.88000, 10.0
7.91500, 10.0
7.95000, 7.0
7.98500, 7.0
8.02000, 8.0
8.05500, 5.0
8.09000, 4.0
8.12500, 3.0
8.16000, 6.0
8.19500, 2.0
8.23000, 4.0
8.26500, 2.0
8.30000, 4.0
8.33500, 7.0
8.37000, 7.0
8.40500, 4.0
8.44000, 2.0
8.47500, 4.0
8.51000, 9.0
8.54500, 4.0
8.58000, 3.0
8.61500, 4.0
8.65000, 2.0
8.68500, 3.0
8.72000, 6.0
8.75500, 3.0
8.79000, 5.0
8.82500, 5.0
8.86000, 4.0
8.89500, 1.0
8.93000, 2.0
8.96500, 6.0
9.00000, 3.0
9.03500, 2.0
9.07000, 2.0
9.10500, 2.0
9.14000, 4.0
9.17500, 1.0
9.21000, 1.0
9.24500, 1.0
9.28000, 3.0
9.31500, 3.0
9.35000, 1.0
9.38500, 2.0
9.42000, 1.0
9.45500, 3.0
9.49000, 1.0
9.52500, 2.0
9.56000, 2.0
9.59500, 1.0
9.63000, 2.0
9.66500, 0.0
9.70000, 1.0
9.73500, 0.0
9.77000, 0.0
9.80500, 2.0
9.84000, 1.0
9.87500, 1.0
9.91000, 0.0
9.94500, 0.0
9.98000, 1.0
10.01500, 0.0
10.05000, 0.0
10.08500, 1.0
10.12000, 1.0
10.13500, 0.0
#ENDOFDATA   :