File: Spectras 20250424/20250425_10K_N10_area1_3.txt
#FORMAT      : EMSA/MAS Spectral Data File
#VERSION     : 1.0
#TITLE       : 20250425_10K_N10_area1_3
#DATE        : 24-APR-2025
#TIME        : 10:06
#OWNER       :
#NPOINTS     : 2048.0
#NCOLUMNS    : 1.0
#XUNITS      : keV
#YUNITS      : counts
#DATATYPE    : XY
#XPERCHAN    : 0.005
#OFFSET      : -0.1
#SIGNALTYPE  : EDS
#CHOFFSET    : 20.0
#LIVETIME    : 60.0167
#REALTIME    : 61.6328
#BEAMKV      : 10.0
#MAGCAM      : 2500.0
#XTILTSTGE   : 0.0
#AZIMANGLE   : 0.0
#ELEVANGLE   : 29.0
#XPOSITION mm: -0.7828
#YPOSITION mm: 0.5540
#ZPOSITION mm: 13.5530
##OXINSTPT   : 2
##OXINSTSTROB: 67.62
#SPECTRUM    : Spectral Data Starts Here
-0.10000, 0.0
-0.06500, 4.0
-0.03000, 78.0
0.00500, 497.0
0.04000, 1098.0
0.07500, 785.0
0.11000, 285.0
0.14500, 327.0
0.18000, 351.0
0.21500, 225.0
0.25000, 140.0
0.28500, 163.0
0.32000, 85.0
0.35500, 68.0
0.39000, 83.0
0.42500, 161.0
0.46000, 485.0
0.49500, 1658.0
0.53000, 2172.0
0.56500, 1079.0
0.60000, 287.0
0.63500, 130.0
0.67000, 134.0
0.70500, 132.0
0.74000, 148.0
0.77500, 165.0
0.81000, 183.0
0.84500, 193.0
0.88000, 192.0
0.91500, 193.0
0.95000, 199.0
0.98500, 210.0
1.02000, 201.0
1.05500, 221.0
1.09000, 199.0
1.12500, 218.0
1.16000, 210.0
1.19500, 214.0
1.23000, 215.0
1.26500, 213.0
1.30000, 214.0
1.33500, 204.0
1.37000, 205.0
1.40500, 190.0
1.44000, 209.0
1.47500, 221.0
1.51000, 233.0
1.54500, 210.0
1.58000, 224.0
1.61500, 279.0
1.65000, 876.0
1.68500, 3688.0
1.72000, 8600.0
1.75500, 9725.0
1.79000, 5280.0
1.82500, 1699.0
1.86000, 611.0
1.89500, 276.0
1.93000, 163.0
1.96500, 143.0
2.00000, 148.0
2.03500, 155.0
2.07000, 139.0
2.10500, 128.0
2.14000, 106.0
2.17500, 146.0
2.21000, 321.0
2.24500, 947.0
2.28000, 2008.0
2.31500, 2341.0
2.35000, 1601.0
2.38500, 893.0
2.42000, 561.0
2.45500, 439.0
2.49000, 277.0
2.52500, 213.0
2.56000, 126.0
2.59500, 130.0
2.63000, 95.0
2.66500, 98.0
2.70000, 89.0
2.73500, 60.0
2.77000, 75.0
2.80500, 80.0
2.84000, 75.0
2.87500, 84.0
2.91000, 78.0
2.94500, 62.0
2.98000, 77.0
3.01500, 74.0
3.05000, 66.0
3.08500, 70.0
3.12000, 76.0
3.15500, 57.0
3.19000, 62.0
3.22500, 52.0
3.26000, 48.0
3.29500, 68.0
3.33000, 77.0
3.36500, 70.0
3.40000, 61.0
3.43500, 65.0
3.47000, 59.0
3.50500, 57.0
3.54000, 70.0
3.57500, 67.0
3.61000, 61.0
3.64500, 43.0
3.68000, 56.0
3.71500, 52.0
3.75000, 45.0
3.78500, 57.0
3.82000, 54.0
3.85500, 50.0
3.89000, 59.0
3.92500, 46.0
3.96000, 55.0
3.99500, 53.0
4.03000, 52.0
4.06500, 59.0
4.10000, 63.0
4.13500, 56.0
4.17000, 30.0
4.20500, 51.0
4.24000, 55.0
4.27500, 32.0
4.31000, 46.0
4.34500, 43.0
4.38000, 43.0
4.41500, 44.0
4.45000, 35.0
4.48500, 39.0
4.52000, 44.0
4.55500, 45.0
4.59000, 42.0
4.62500, 46.0
4.66000, 41.0
4.69500, 35.0
4.73000, 32.0
4.76500, 31.0
4.80000, 35.0
4.83500, 32.0
4.87000, 28.0
4.90500, 32.0
4.94000, 41.0
4.97500, 31.0
5.01000, 34.0
5.04500, 34.0
5.08000, 40.0
5.11500, 27.0
5.15000, 29.0
5.18500, 33.0
5.22000, 39.0
5.25500, 23.0
5.29000, 32.0
5.32500, 29.0
5.36000, 28.0
5.39500, 26.0
5.43000, 20.0
5.46500, 28.0
5.50000, 31.0
5.53500, 25.0
5.57000, 27.0
5.60500, 39.0
5.64000, 22.0
5.67500, 31.0
5.71000, 22.0
5.74500, 22.0
5.78000, 17.0
5.81500, 15.0
5.85000, 22.0
5.88500, 25.0
5.92000, 25.0
5.95500, 18.0
5.99000, 26.0
6.02500, 22.0
6.06000, 29.0
6.09500, 26.0
6.13000, 30.0
6.16500, 21.0
6.20000, 27.0
6.23500, 14.0
6.27000, 22.0
6.30500, 19.0
6.34000, 21.0
6.37500, 19.0
6.41000, 19.0
6.44500, 12.0
6.48000, 19.0
6.51500, 23.0
6.55000, 19.0
6.58500, 14.0
6.62000, 17.0
6.65500, 26.0
6.69000, 15.0
6.72500, 18.0
6.76000, 14.0
6.79500, 20.0
6.83000, 19.0
6.86500, 15.0
6.90000, 16.0
6.93500, 15.0
6.97000, 14.0
7.00500, 17.0
7.04000, 23.0
7.07500, 17.0
7.11000, 20.0
7.14500, 18.0
7.18000, 16.0
7.21500, 17.0
7.25000, 13.0
7.28500, 18.0
7.32000, 16.0
7.35500, 7.0
7.39000, 15.0
7.42500, 17.0
7.46000, 9.0
7.49500, 14.0
7.53000, 9.0
7.56500, 18.0
7.60000, 9.0
7.63500, 11.0
7.67000, 9.0
7.70500, 18.0
7.74000, 10.0
7.77500, 10.0
7.81000, 16.0
7.84500, 13.0
7.88000, 11.0
7.91500, 11.0
7.95000, 10.0
7.98500, 15.0
8.02000, 13.0
8.05500, 4.0
8.09000, 10.0
8.12500, 7.0
8.16000, 9.0
8.19500, 8.0
8.23000, 9.0
8.26500, 6.0
8.30000, 8.0
8.33500, 7.0
8.37000, 5.0
8.40500, 10.0
8.44000, 7.0
8.47500, 14.0
8.51000, 8.0
8.54500, 8.0
8.58000, 8.0
8.61500, 6.0
8.65000, 3.0
8.68500, 4.0
8.72000, 8.0
8.75500, 2.0
8.79000, 10.0
8.82500, 9.0
8.86000, 6.0
8.89500, 11.0
8.93000, 11.0
8.96500, 4.0
9.00000, 9.0
9.03500, 7.0
9.07000, 6.0
9.10500, 6.0
9.14000, 8.0
9.17500, 6.0
9.21000, 5.0
9.24500, 4.0
9.28000, 6.0
9.31500, 9.0
9.35000, 1.0
9.38500, 5.0
9.42000, 6.0
9.45500, 2.0
9.49000, 1.0
9.52500, 3.0
9.56000, 3.0
9.59500, 4.0
9.63000, 3.0
9.66500, 2.0
9.70000, 2.0
9.73500, 2.0
9.77000, 3.0
9.80500, 3.0
9.84000, 3.0
9.87500, 0.0
9.91000, 2.0
9.94500, 0.0
9.98000, 0.0
10.01500, 1.0
10.05000, 1.0
10.08500, 0.0
10.12000, 0.0
10.13500, 0.0
#ENDOFDATA   :