File: Spectras 20250424/20250425_10K_D2_3.txt
#FORMAT      : EMSA/MAS Spectral Data File
#VERSION     : 1.0
#TITLE       : 20250425_10K_D2_3
#DATE        : 24-APR-2025
#TIME        : 10:29
#OWNER       :
#NPOINTS     : 2048.0
#NCOLUMNS    : 1.0
#XUNITS      : keV
#YUNITS      : counts
#DATATYPE    : XY
#XPERCHAN    : 0.005
#OFFSET      : -0.1
#SIGNALTYPE  : EDS
#CHOFFSET    : 20.0
#LIVETIME    : 60.0123
#REALTIME    : 61.9111
#BEAMKV      : 10.0
#MAGCAM      : 1800.0
#XTILTSTGE   : 0.0
#AZIMANGLE   : 0.0
#ELEVANGLE   : 29.0
#XPOSITION mm: 2.4460
#YPOSITION mm: 0.1345
#ZPOSITION mm: 13.5200
##OXINSTPT   : 2
##OXINSTSTROB: 67.50
#SPECTRUM    : Spectral Data Starts Here
-0.10000, 0.0
-0.06500, 2.0
-0.03000, 63.0
0.00500, 515.0
0.04000, 1054.0
0.07500, 732.0
0.11000, 189.0
0.14500, 59.0
0.18000, 53.0
0.21500, 68.0
0.25000, 102.0
0.28500, 114.0
0.32000, 89.0
0.35500, 93.0
0.39000, 125.0
0.42500, 271.0
0.46000, 1366.0
0.49500, 4620.0
0.53000, 6157.0
0.56500, 2738.0
0.60000, 451.0
0.63500, 109.0
0.67000, 116.0
0.70500, 115.0
0.74000, 151.0
0.77500, 151.0
0.81000, 137.0
0.84500, 170.0
0.88000, 169.0
0.91500, 164.0
0.95000, 178.0
0.98500, 168.0
1.02000, 189.0
1.05500, 218.0
1.09000, 184.0
1.12500, 208.0
1.16000, 203.0
1.19500, 193.0
1.23000, 215.0
1.26500, 178.0
1.30000, 195.0
1.33500, 176.0
1.37000, 207.0
1.40500, 211.0
1.44000, 207.0
1.47500, 206.0
1.51000, 227.0
1.54500, 231.0
1.58000, 214.0
1.61500, 315.0
1.65000, 1206.0
1.68500, 5362.0
1.72000, 12770.0
1.75500, 14115.0
1.79000, 7683.0
1.82500, 2490.0
1.86000, 815.0
1.89500, 309.0
1.93000, 121.0
1.96500, 72.0
2.00000, 97.0
2.03500, 88.0
2.07000, 83.0
2.10500, 80.0
2.14000, 88.0
2.17500, 79.0
2.21000, 83.0
2.24500, 115.0
2.28000, 110.0
2.31500, 98.0
2.35000, 110.0
2.38500, 86.0
2.42000, 89.0
2.45500, 95.0
2.49000, 84.0
2.52500, 74.0
2.56000, 93.0
2.59500, 83.0
2.63000, 68.0
2.66500, 79.0
2.70000, 81.0
2.73500, 77.0
2.77000, 82.0
2.80500, 79.0
2.84000, 69.0
2.87500, 78.0
2.91000, 71.0
2.94500, 72.0
2.98000, 65.0
3.01500, 61.0
3.05000, 47.0
3.08500, 71.0
3.12000, 54.0
3.15500, 63.0
3.19000, 66.0
3.22500, 53.0
3.26000, 55.0
3.29500, 62.0
3.33000, 51.0
3.36500, 65.0
3.40000, 61.0
3.43500, 64.0
3.47000, 85.0
3.50500, 74.0
3.54000, 70.0
3.57500, 66.0
3.61000, 63.0
3.64500, 48.0
3.68000, 49.0
3.71500, 41.0
3.75000, 42.0
3.78500, 43.0
3.82000, 55.0
3.85500, 54.0
3.89000, 40.0
3.92500, 47.0
3.96000, 52.0
3.99500, 52.0
4.03000, 45.0
4.06500, 39.0
4.10000, 37.0
4.13500, 47.0
4.17000, 37.0
4.20500, 41.0
4.24000, 37.0
4.27500, 37.0
4.31000, 32.0
4.34500, 40.0
4.38000, 41.0
4.41500, 38.0
4.45000, 33.0
4.48500, 40.0
4.52000, 37.0
4.55500, 34.0
4.59000, 34.0
4.62500, 28.0
4.66000, 32.0
4.69500, 41.0
4.73000, 25.0
4.76500, 31.0
4.80000, 32.0
4.83500, 34.0
4.87000, 28.0
4.90500, 33.0
4.94000, 31.0
4.97500, 27.0
5.01000, 31.0
5.04500, 23.0
5.08000, 32.0
5.11500, 30.0
5.15000, 18.0
5.18500, 26.0
5.22000, 19.0
5.25500, 21.0
5.29000, 21.0
5.32500, 19.0
5.36000, 21.0
5.39500, 27.0
5.43000, 18.0
5.46500, 24.0
5.50000, 17.0
5.53500, 17.0
5.57000, 20.0
5.60500, 21.0
5.64000, 16.0
5.67500, 18.0
5.71000, 24.0
5.74500, 18.0
5.78000, 21.0
5.81500, 23.0
5.85000, 17.0
5.88500, 20.0
5.92000, 16.0
5.95500, 23.0
5.99000, 20.0
6.02500, 17.0
6.06000, 16.0
6.09500, 17.0
6.13000, 20.0
6.16500, 25.0
6.20000, 20.0
6.23500, 15.0
6.27000, 18.0
6.30500, 17.0
6.34000, 10.0
6.37500, 15.0
6.41000, 14.0
6.44500, 12.0
6.48000, 10.0
6.51500, 14.0
6.55000, 15.0
6.58500, 11.0
6.62000, 21.0
6.65500, 13.0
6.69000, 15.0
6.72500, 7.0
6.76000, 12.0
6.79500, 17.0
6.83000, 11.0
6.86500, 12.0
6.90000, 8.0
6.93500, 14.0
6.97000, 12.0
7.00500, 3.0
7.04000, 11.0
7.07500, 9.0
7.11000, 9.0
7.14500, 12.0
7.18000, 10.0
7.21500, 17.0
7.25000, 10.0
7.28500, 12.0
7.32000, 9.0
7.35500, 6.0
7.39000, 11.0
7.42500, 5.0
7.46000, 8.0
7.49500, 10.0
7.53000, 9.0
7.56500, 8.0
7.60000, 10.0
7.63500, 6.0
7.67000, 10.0
7.70500, 7.0
7.74000, 12.0
7.77500, 12.0
7.81000, 10.0
7.84500, 8.0
7.88000, 13.0
7.91500, 5.0
7.95000, 4.0
7.98500, 10.0
8.02000, 7.0
8.05500, 5.0
8.09000, 7.0
8.12500, 10.0
8.16000, 11.0
8.19500, 7.0
8.23000, 4.0
8.26500, 8.0
8.30000, 6.0
8.33500, 5.0
8.37000, 2.0
8.40500, 1.0
8.44000, 4.0
8.47500, 6.0
8.51000, 4.0
8.54500, 7.0
8.58000, 6.0
8.61500, 4.0
8.65000, 6.0
8.68500, 1.0
8.72000, 3.0
8.75500, 6.0
8.79000, 5.0
8.82500, 9.0
8.86000, 3.0
8.89500, 3.0
8.93000, 2.0
8.96500, 1.0
9.00000, 0.0
9.03500, 1.0
9.07000, 5.0
9.10500, 3.0
9.14000, 4.0
9.17500, 1.0
9.21000, 3.0
9.24500, 4.0
9.28000, 3.0
9.31500, 0.0
9.35000, 1.0
9.38500, 1.0
9.42000, 2.0
9.45500, 1.0
9.49000, 0.0
9.52500, 1.0
9.56000, 2.0
9.59500, 2.0
9.63000, 1.0
9.66500, 2.0
9.70000, 3.0
9.73500, 1.0
9.77000, 0.0
9.80500, 0.0
9.84000, 1.0
9.87500, 2.0
9.91000, 1.0
9.94500, 0.0
9.98000, 0.0
10.01500, 0.0
10.05000, 0.0
10.08500, 0.0
10.12000, 0.0
10.13500, 0.0
#ENDOFDATA   :