File: Spectras 20250424/20250425_10K_J1_2.txt
#FORMAT      : EMSA/MAS Spectral Data File
#VERSION     : 1.0
#TITLE       : 20250425_10K_J1_2
#DATE        : 24-APR-2025
#TIME        : 10:37
#OWNER       :
#NPOINTS     : 2048.0
#NCOLUMNS    : 1.0
#XUNITS      : keV
#YUNITS      : counts
#DATATYPE    : XY
#XPERCHAN    : 0.005
#OFFSET      : -0.1
#SIGNALTYPE  : EDS
#CHOFFSET    : 20.0
#LIVETIME    : 60.0
#REALTIME    : 61.5827
#BEAMKV      : 10.0
#MAGCAM      : 800.0
#XTILTSTGE   : 0.0
#AZIMANGLE   : 0.0
#ELEVANGLE   : 29.0
#XPOSITION mm: 2.1725
#YPOSITION mm: 1.8240
#ZPOSITION mm: 13.5200
##OXINSTPT   : 2
##OXINSTSTROB: 67.46
#SPECTRUM    : Spectral Data Starts Here
-0.10000, 0.0
-0.06500, 4.0
-0.03000, 64.0
0.00500, 493.0
0.04000, 1085.0
0.07500, 789.0
0.11000, 363.0
0.14500, 594.0
0.18000, 537.0
0.21500, 275.0
0.25000, 178.0
0.28500, 139.0
0.32000, 78.0
0.35500, 57.0
0.39000, 75.0
0.42500, 102.0
0.46000, 198.0
0.49500, 597.0
0.53000, 797.0
0.56500, 469.0
0.60000, 224.0
0.63500, 156.0
0.67000, 165.0
0.70500, 157.0
0.74000, 207.0
0.77500, 181.0
0.81000, 204.0
0.84500, 197.0
0.88000, 226.0
0.91500, 235.0
0.95000, 212.0
0.98500, 218.0
1.02000, 239.0
1.05500, 233.0
1.09000, 219.0
1.12500, 206.0
1.16000, 218.0
1.19500, 241.0
1.23000, 240.0
1.26500, 224.0
1.30000, 236.0
1.33500, 221.0
1.37000, 228.0
1.40500, 213.0
1.44000, 249.0
1.47500, 221.0
1.51000, 233.0
1.54500, 233.0
1.58000, 212.0
1.61500, 242.0
1.65000, 629.0
1.68500, 2436.0
1.72000, 5608.0
1.75500, 6424.0
1.79000, 3461.0
1.82500, 1175.0
1.86000, 459.0
1.89500, 227.0
1.93000, 185.0
1.96500, 163.0
2.00000, 202.0
2.03500, 220.0
2.07000, 206.0
2.10500, 183.0
2.14000, 186.0
2.17500, 195.0
2.21000, 585.0
2.24500, 1863.0
2.28000, 3917.0
2.31500, 4644.0
2.35000, 3172.0
2.38500, 1689.0
2.42000, 1020.0
2.45500, 725.0
2.49000, 535.0
2.52500, 327.0
2.56000, 191.0
2.59500, 127.0
2.63000, 117.0
2.66500, 114.0
2.70000, 103.0
2.73500, 95.0
2.77000, 78.0
2.80500, 96.0
2.84000, 105.0
2.87500, 107.0
2.91000, 86.0
2.94500, 93.0
2.98000, 68.0
3.01500, 79.0
3.05000, 71.0
3.08500, 69.0
3.12000, 92.0
3.15500, 56.0
3.19000, 74.0
3.22500, 70.0
3.26000, 68.0
3.29500, 82.0
3.33000, 84.0
3.36500, 65.0
3.40000, 66.0
3.43500, 73.0
3.47000, 83.0
3.50500, 71.0
3.54000, 71.0
3.57500, 72.0
3.61000, 70.0
3.64500, 66.0
3.68000, 56.0
3.71500, 50.0
3.75000, 70.0
3.78500, 63.0
3.82000, 56.0
3.85500, 57.0
3.89000, 69.0
3.92500, 61.0
3.96000, 59.0
3.99500, 67.0
4.03000, 67.0
4.06500, 61.0
4.10000, 53.0
4.13500, 62.0
4.17000, 54.0
4.20500, 67.0
4.24000, 55.0
4.27500, 55.0
4.31000, 51.0
4.34500, 54.0
4.38000, 65.0
4.41500, 46.0
4.45000, 49.0
4.48500, 61.0
4.52000, 47.0
4.55500, 48.0
4.59000, 45.0
4.62500, 45.0
4.66000, 42.0
4.69500, 60.0
4.73000, 39.0
4.76500, 41.0
4.80000, 49.0
4.83500, 41.0
4.87000, 46.0
4.90500, 40.0
4.94000, 35.0
4.97500, 42.0
5.01000, 47.0
5.04500, 33.0
5.08000, 41.0
5.11500, 31.0
5.15000, 43.0
5.18500, 34.0
5.22000, 44.0
5.25500, 43.0
5.29000, 45.0
5.32500, 35.0
5.36000, 36.0
5.39500, 38.0
5.43000, 35.0
5.46500, 36.0
5.50000, 45.0
5.53500, 26.0
5.57000, 25.0
5.60500, 37.0
5.64000, 31.0
5.67500, 37.0
5.71000, 28.0
5.74500, 36.0
5.78000, 26.0
5.81500, 34.0
5.85000, 36.0
5.88500, 25.0
5.92000, 33.0
5.95500, 32.0
5.99000, 31.0
6.02500, 29.0
6.06000, 24.0
6.09500, 32.0
6.13000, 35.0
6.16500, 28.0
6.20000, 29.0
6.23500, 23.0
6.27000, 27.0
6.30500, 22.0
6.34000, 23.0
6.37500, 25.0
6.41000, 19.0
6.44500, 32.0
6.48000, 30.0
6.51500, 31.0
6.55000, 33.0
6.58500, 20.0
6.62000, 25.0
6.65500, 26.0
6.69000, 12.0
6.72500, 22.0
6.76000, 24.0
6.79500, 27.0
6.83000, 17.0
6.86500, 14.0
6.90000, 21.0
6.93500, 23.0
6.97000, 22.0
7.00500, 34.0
7.04000, 19.0
7.07500, 13.0
7.11000, 23.0
7.14500, 17.0
7.18000, 14.0
7.21500, 17.0
7.25000, 16.0
7.28500, 14.0
7.32000, 15.0
7.35500, 28.0
7.39000, 11.0
7.42500, 20.0
7.46000, 17.0
7.49500, 21.0
7.53000, 25.0
7.56500, 9.0
7.60000, 17.0
7.63500, 14.0
7.67000, 11.0
7.70500, 21.0
7.74000, 13.0
7.77500, 18.0
7.81000, 13.0
7.84500, 9.0
7.88000, 10.0
7.91500, 17.0
7.95000, 16.0
7.98500, 12.0
8.02000, 16.0
8.05500, 18.0
8.09000, 13.0
8.12500, 15.0
8.16000, 13.0
8.19500, 16.0
8.23000, 8.0
8.26500, 10.0
8.30000, 11.0
8.33500, 7.0
8.37000, 10.0
8.40500, 11.0
8.44000, 10.0
8.47500, 17.0
8.51000, 9.0
8.54500, 9.0
8.58000, 11.0
8.61500, 11.0
8.65000, 6.0
8.68500, 8.0
8.72000, 10.0
8.75500, 8.0
8.79000, 9.0
8.82500, 12.0
8.86000, 6.0
8.89500, 14.0
8.93000, 7.0
8.96500, 11.0
9.00000, 9.0
9.03500, 9.0
9.07000, 3.0
9.10500, 6.0
9.14000, 9.0
9.17500, 10.0
9.21000, 11.0
9.24500, 11.0
9.28000, 4.0
9.31500, 4.0
9.35000, 5.0
9.38500, 5.0
9.42000, 7.0
9.45500, 4.0
9.49000, 6.0
9.52500, 3.0
9.56000, 9.0
9.59500, 3.0
9.63000, 7.0
9.66500, 1.0
9.70000, 1.0
9.73500, 2.0
9.77000, 4.0
9.80500, 2.0
9.84000, 2.0
9.87500, 2.0
9.91000, 1.0
9.94500, 1.0
9.98000, 1.0
10.01500, 0.0
10.05000, 0.0
10.08500, 0.0
10.12000, 0.0
10.13500, 0.0
#ENDOFDATA   :