File: Spectras 20250424/20250425_10K_J1_3.txt
#FORMAT      : EMSA/MAS Spectral Data File
#VERSION     : 1.0
#TITLE       : 20250425_10K_J1_3
#DATE        : 24-APR-2025
#TIME        : 10:38
#OWNER       :
#NPOINTS     : 2048.0
#NCOLUMNS    : 1.0
#XUNITS      : keV
#YUNITS      : counts
#DATATYPE    : XY
#XPERCHAN    : 0.005
#OFFSET      : -0.1
#SIGNALTYPE  : EDS
#CHOFFSET    : 20.0
#LIVETIME    : 60.0
#REALTIME    : 61.5691
#BEAMKV      : 10.0
#MAGCAM      : 800.0
#XTILTSTGE   : 0.0
#AZIMANGLE   : 0.0
#ELEVANGLE   : 29.0
#XPOSITION mm: 2.1725
#YPOSITION mm: 1.8240
#ZPOSITION mm: 13.5200
##OXINSTPT   : 2
##OXINSTSTROB: 67.53
#SPECTRUM    : Spectral Data Starts Here
-0.10000, 0.0
-0.06500, 1.0
-0.03000, 60.0
0.00500, 481.0
0.04000, 1047.0
0.07500, 820.0
0.11000, 365.0
0.14500, 576.0
0.18000, 524.0
0.21500, 303.0
0.25000, 166.0
0.28500, 150.0
0.32000, 93.0
0.35500, 59.0
0.39000, 71.0
0.42500, 86.0
0.46000, 223.0
0.49500, 623.0
0.53000, 765.0
0.56500, 475.0
0.60000, 213.0
0.63500, 153.0
0.67000, 157.0
0.70500, 162.0
0.74000, 196.0
0.77500, 194.0
0.81000, 189.0
0.84500, 216.0
0.88000, 221.0
0.91500, 228.0
0.95000, 219.0
0.98500, 244.0
1.02000, 198.0
1.05500, 208.0
1.09000, 240.0
1.12500, 228.0
1.16000, 210.0
1.19500, 226.0
1.23000, 222.0
1.26500, 227.0
1.30000, 228.0
1.33500, 226.0
1.37000, 224.0
1.40500, 224.0
1.44000, 228.0
1.47500, 250.0
1.51000, 245.0
1.54500, 231.0
1.58000, 208.0
1.61500, 265.0
1.65000, 664.0
1.68500, 2476.0
1.72000, 5704.0
1.75500, 6174.0
1.79000, 3471.0
1.82500, 1226.0
1.86000, 469.0
1.89500, 239.0
1.93000, 173.0
1.96500, 178.0
2.00000, 225.0
2.03500, 207.0
2.07000, 201.0
2.10500, 173.0
2.14000, 167.0
2.17500, 206.0
2.21000, 555.0
2.24500, 1854.0
2.28000, 3815.0
2.31500, 4582.0
2.35000, 3143.0
2.38500, 1720.0
2.42000, 1038.0
2.45500, 759.0
2.49000, 499.0
2.52500, 316.0
2.56000, 194.0
2.59500, 147.0
2.63000, 109.0
2.66500, 121.0
2.70000, 91.0
2.73500, 85.0
2.77000, 82.0
2.80500, 94.0
2.84000, 105.0
2.87500, 87.0
2.91000, 87.0
2.94500, 66.0
2.98000, 71.0
3.01500, 77.0
3.05000, 82.0
3.08500, 80.0
3.12000, 79.0
3.15500, 63.0
3.19000, 90.0
3.22500, 67.0
3.26000, 71.0
3.29500, 93.0
3.33000, 62.0
3.36500, 67.0
3.40000, 81.0
3.43500, 69.0
3.47000, 64.0
3.50500, 76.0
3.54000, 54.0
3.57500, 56.0
3.61000, 63.0
3.64500, 67.0
3.68000, 62.0
3.71500, 66.0
3.75000, 53.0
3.78500, 62.0
3.82000, 69.0
3.85500, 58.0
3.89000, 57.0
3.92500, 66.0
3.96000, 52.0
3.99500, 66.0
4.03000, 70.0
4.06500, 65.0
4.10000, 61.0
4.13500, 47.0
4.17000, 56.0
4.20500, 66.0
4.24000, 52.0
4.27500, 51.0
4.31000, 49.0
4.34500, 51.0
4.38000, 49.0
4.41500, 56.0
4.45000, 56.0
4.48500, 51.0
4.52000, 43.0
4.55500, 45.0
4.59000, 40.0
4.62500, 52.0
4.66000, 55.0
4.69500, 34.0
4.73000, 49.0
4.76500, 41.0
4.80000, 36.0
4.83500, 44.0
4.87000, 44.0
4.90500, 39.0
4.94000, 35.0
4.97500, 42.0
5.01000, 34.0
5.04500, 50.0
5.08000, 46.0
5.11500, 40.0
5.15000, 46.0
5.18500, 42.0
5.22000, 37.0
5.25500, 37.0
5.29000, 36.0
5.32500, 37.0
5.36000, 43.0
5.39500, 31.0
5.43000, 31.0
5.46500, 31.0
5.50000, 21.0
5.53500, 30.0
5.57000, 40.0
5.60500, 27.0
5.64000, 36.0
5.67500, 32.0
5.71000, 38.0
5.74500, 43.0
5.78000, 29.0
5.81500, 35.0
5.85000, 31.0
5.88500, 32.0
5.92000, 43.0
5.95500, 31.0
5.99000, 30.0
6.02500, 26.0
6.06000, 31.0
6.09500, 21.0
6.13000, 28.0
6.16500, 35.0
6.20000, 27.0
6.23500, 32.0
6.27000, 21.0
6.30500, 22.0
6.34000, 27.0
6.37500, 24.0
6.41000, 25.0
6.44500, 31.0
6.48000, 20.0
6.51500, 20.0
6.55000, 25.0
6.58500, 15.0
6.62000, 26.0
6.65500, 27.0
6.69000, 23.0
6.72500, 23.0
6.76000, 18.0
6.79500, 25.0
6.83000, 16.0
6.86500, 23.0
6.90000, 25.0
6.93500, 17.0
6.97000, 10.0
7.00500, 18.0
7.04000, 21.0
7.07500, 24.0
7.11000, 21.0
7.14500, 18.0
7.18000, 17.0
7.21500, 18.0
7.25000, 24.0
7.28500, 17.0
7.32000, 25.0
7.35500, 21.0
7.39000, 19.0
7.42500, 9.0
7.46000, 17.0
7.49500, 17.0
7.53000, 13.0
7.56500, 18.0
7.60000, 9.0
7.63500, 12.0
7.67000, 18.0
7.70500, 10.0
7.74000, 21.0
7.77500, 12.0
7.81000, 14.0
7.84500, 13.0
7.88000, 18.0
7.91500, 11.0
7.95000, 13.0
7.98500, 13.0
8.02000, 15.0
8.05500, 18.0
8.09000, 18.0
8.12500, 9.0
8.16000, 15.0
8.19500, 13.0
8.23000, 9.0
8.26500, 11.0
8.30000, 12.0
8.33500, 11.0
8.37000, 19.0
8.40500, 12.0
8.44000, 13.0
8.47500, 14.0
8.51000, 6.0
8.54500, 8.0
8.58000, 7.0
8.61500, 17.0
8.65000, 11.0
8.68500, 12.0
8.72000, 11.0
8.75500, 10.0
8.79000, 9.0
8.82500, 13.0
8.86000, 10.0
8.89500, 12.0
8.93000, 8.0
8.96500, 5.0
9.00000, 2.0
9.03500, 7.0
9.07000, 12.0
9.10500, 5.0
9.14000, 8.0
9.17500, 8.0
9.21000, 4.0
9.24500, 4.0
9.28000, 4.0
9.31500, 3.0
9.35000, 6.0
9.38500, 6.0
9.42000, 7.0
9.45500, 7.0
9.49000, 3.0
9.52500, 5.0
9.56000, 4.0
9.59500, 6.0
9.63000, 9.0
9.66500, 2.0
9.70000, 3.0
9.73500, 2.0
9.77000, 5.0
9.80500, 4.0
9.84000, 2.0
9.87500, 2.0
9.91000, 1.0
9.94500, 2.0
9.98000, 0.0
10.01500, 1.0
10.05000, 1.0
10.08500, 0.0
10.12000, 0.0
10.13500, 0.0
#ENDOFDATA   :