File: Spectras 20250424/20250425_10K_D2_2.txt
#FORMAT      : EMSA/MAS Spectral Data File
#VERSION     : 1.0
#TITLE       : 20250425_10K_D2_2
#DATE        : 24-APR-2025
#TIME        : 10:28
#OWNER       :
#NPOINTS     : 2048.0
#NCOLUMNS    : 1.0
#XUNITS      : keV
#YUNITS      : counts
#DATATYPE    : XY
#XPERCHAN    : 0.005
#OFFSET      : -0.1
#SIGNALTYPE  : EDS
#CHOFFSET    : 20.0
#LIVETIME    : 60.0063
#REALTIME    : 61.8839
#BEAMKV      : 10.0
#MAGCAM      : 1800.0
#XTILTSTGE   : 0.0
#AZIMANGLE   : 0.0
#ELEVANGLE   : 29.0
#XPOSITION mm: 2.4460
#YPOSITION mm: 0.1345
#ZPOSITION mm: 13.5200
##OXINSTPT   : 2
##OXINSTSTROB: 67.59
#SPECTRUM    : Spectral Data Starts Here
-0.10000, 0.0
-0.06500, 2.0
-0.03000, 68.0
0.00500, 466.0
0.04000, 1037.0
0.07500, 744.0
0.11000, 181.0
0.14500, 56.0
0.18000, 41.0
0.21500, 82.0
0.25000, 123.0
0.28500, 128.0
0.32000, 82.0
0.35500, 88.0
0.39000, 137.0
0.42500, 283.0
0.46000, 1324.0
0.49500, 4606.0
0.53000, 6173.0
0.56500, 2692.0
0.60000, 464.0
0.63500, 100.0
0.67000, 93.0
0.70500, 117.0
0.74000, 129.0
0.77500, 143.0
0.81000, 151.0
0.84500, 171.0
0.88000, 149.0
0.91500, 163.0
0.95000, 189.0
0.98500, 198.0
1.02000, 185.0
1.05500, 184.0
1.09000, 194.0
1.12500, 210.0
1.16000, 202.0
1.19500, 195.0
1.23000, 197.0
1.26500, 191.0
1.30000, 203.0
1.33500, 194.0
1.37000, 189.0
1.40500, 213.0
1.44000, 214.0
1.47500, 212.0
1.51000, 221.0
1.54500, 233.0
1.58000, 253.0
1.61500, 300.0
1.65000, 1202.0
1.68500, 5465.0
1.72000, 12578.0
1.75500, 14268.0
1.79000, 7651.0
1.82500, 2484.0
1.86000, 778.0
1.89500, 306.0
1.93000, 132.0
1.96500, 102.0
2.00000, 96.0
2.03500, 95.0
2.07000, 90.0
2.10500, 83.0
2.14000, 75.0
2.17500, 89.0
2.21000, 97.0
2.24500, 111.0
2.28000, 108.0
2.31500, 128.0
2.35000, 105.0
2.38500, 83.0
2.42000, 94.0
2.45500, 73.0
2.49000, 81.0
2.52500, 83.0
2.56000, 74.0
2.59500, 78.0
2.63000, 83.0
2.66500, 67.0
2.70000, 69.0
2.73500, 82.0
2.77000, 57.0
2.80500, 69.0
2.84000, 75.0
2.87500, 81.0
2.91000, 65.0
2.94500, 59.0
2.98000, 74.0
3.01500, 71.0
3.05000, 59.0
3.08500, 52.0
3.12000, 69.0
3.15500, 66.0
3.19000, 58.0
3.22500, 69.0
3.26000, 57.0
3.29500, 64.0
3.33000, 65.0
3.36500, 41.0
3.40000, 71.0
3.43500, 62.0
3.47000, 83.0
3.50500, 75.0
3.54000, 62.0
3.57500, 69.0
3.61000, 40.0
3.64500, 48.0
3.68000, 38.0
3.71500, 53.0
3.75000, 39.0
3.78500, 49.0
3.82000, 51.0
3.85500, 48.0
3.89000, 48.0
3.92500, 35.0
3.96000, 50.0
3.99500, 43.0
4.03000, 36.0
4.06500, 47.0
4.10000, 38.0
4.13500, 45.0
4.17000, 34.0
4.20500, 39.0
4.24000, 36.0
4.27500, 29.0
4.31000, 33.0
4.34500, 39.0
4.38000, 37.0
4.41500, 33.0
4.45000, 40.0
4.48500, 32.0
4.52000, 35.0
4.55500, 32.0
4.59000, 32.0
4.62500, 37.0
4.66000, 36.0
4.69500, 30.0
4.73000, 31.0
4.76500, 34.0
4.80000, 35.0
4.83500, 32.0
4.87000, 38.0
4.90500, 30.0
4.94000, 29.0
4.97500, 26.0
5.01000, 22.0
5.04500, 23.0
5.08000, 19.0
5.11500, 18.0
5.15000, 37.0
5.18500, 27.0
5.22000, 24.0
5.25500, 26.0
5.29000, 14.0
5.32500, 27.0
5.36000, 31.0
5.39500, 44.0
5.43000, 26.0
5.46500, 24.0
5.50000, 22.0
5.53500, 22.0
5.57000, 26.0
5.60500, 17.0
5.64000, 17.0
5.67500, 18.0
5.71000, 23.0
5.74500, 20.0
5.78000, 23.0
5.81500, 24.0
5.85000, 30.0
5.88500, 20.0
5.92000, 12.0
5.95500, 21.0
5.99000, 11.0
6.02500, 19.0
6.06000, 14.0
6.09500, 17.0
6.13000, 19.0
6.16500, 22.0
6.20000, 19.0
6.23500, 18.0
6.27000, 13.0
6.30500, 14.0
6.34000, 9.0
6.37500, 13.0
6.41000, 20.0
6.44500, 15.0
6.48000, 10.0
6.51500, 17.0
6.55000, 25.0
6.58500, 13.0
6.62000, 18.0
6.65500, 10.0
6.69000, 11.0
6.72500, 14.0
6.76000, 17.0
6.79500, 12.0
6.83000, 10.0
6.86500, 20.0
6.90000, 17.0
6.93500, 9.0
6.97000, 10.0
7.00500, 9.0
7.04000, 8.0
7.07500, 10.0
7.11000, 12.0
7.14500, 9.0
7.18000, 16.0
7.21500, 8.0
7.25000, 7.0
7.28500, 11.0
7.32000, 6.0
7.35500, 10.0
7.39000, 11.0
7.42500, 11.0
7.46000, 9.0
7.49500, 7.0
7.53000, 8.0
7.56500, 9.0
7.60000, 7.0
7.63500, 5.0
7.67000, 4.0
7.70500, 7.0
7.74000, 7.0
7.77500, 4.0
7.81000, 9.0
7.84500, 7.0
7.88000, 8.0
7.91500, 5.0
7.95000, 4.0
7.98500, 4.0
8.02000, 3.0
8.05500, 4.0
8.09000, 6.0
8.12500, 5.0
8.16000, 4.0
8.19500, 10.0
8.23000, 5.0
8.26500, 5.0
8.30000, 7.0
8.33500, 5.0
8.37000, 2.0
8.40500, 7.0
8.44000, 2.0
8.47500, 5.0
8.51000, 3.0
8.54500, 2.0
8.58000, 2.0
8.61500, 3.0
8.65000, 3.0
8.68500, 2.0
8.72000, 6.0
8.75500, 2.0
8.79000, 2.0
8.82500, 2.0
8.86000, 1.0
8.89500, 1.0
8.93000, 1.0
8.96500, 3.0
9.00000, 2.0
9.03500, 3.0
9.07000, 5.0
9.10500, 4.0
9.14000, 1.0
9.17500, 3.0
9.21000, 1.0
9.24500, 0.0
9.28000, 1.0
9.31500, 5.0
9.35000, 2.0
9.38500, 2.0
9.42000, 2.0
9.45500, 2.0
9.49000, 2.0
9.52500, 1.0
9.56000, 2.0
9.59500, 1.0
9.63000, 1.0
9.66500, 1.0
9.70000, 1.0
9.73500, 0.0
9.77000, 0.0
9.80500, 0.0
9.84000, 0.0
9.87500, 0.0
9.91000, 1.0
9.94500, 0.0
9.98000, 0.0
10.01500, 0.0
10.05000, 0.0
10.08500, 0.0
10.12000, 0.0
10.13500, 0.0
#ENDOFDATA   :