File: Spectras 20250424/20250425_10K_G10_2.txt
#FORMAT      : EMSA/MAS Spectral Data File
#VERSION     : 1.0
#TITLE       : 20250425_10K_G10_2
#DATE        : 24-APR-2025
#TIME        : 09:59
#OWNER       :
#NPOINTS     : 2048.0
#NCOLUMNS    : 1.0
#XUNITS      : keV
#YUNITS      : counts
#DATATYPE    : XY
#XPERCHAN    : 0.005
#OFFSET      : -0.1
#SIGNALTYPE  : EDS
#CHOFFSET    : 20.0
#LIVETIME    : 60.0
#REALTIME    : 61.8849
#BEAMKV      : 10.0
#MAGCAM      : 3300.0
#XTILTSTGE   : 0.0
#AZIMANGLE   : 0.0
#ELEVANGLE   : 29.0
#XPOSITION mm: 0.5138
#YPOSITION mm: -0.6150
#ZPOSITION mm: 13.5353
##OXINSTPT   : 2
##OXINSTSTROB: 67.57
#SPECTRUM    : Spectral Data Starts Here
-0.10000, 0.0
-0.06500, 4.0
-0.03000, 76.0
0.00500, 499.0
0.04000, 1014.0
0.07500, 736.0
0.11000, 194.0
0.14500, 56.0
0.18000, 50.0
0.21500, 76.0
0.25000, 131.0
0.28500, 128.0
0.32000, 77.0
0.35500, 81.0
0.39000, 127.0
0.42500, 265.0
0.46000, 1288.0
0.49500, 4598.0
0.53000, 5988.0
0.56500, 2682.0
0.60000, 432.0
0.63500, 98.0
0.67000, 94.0
0.70500, 106.0
0.74000, 123.0
0.77500, 137.0
0.81000, 158.0
0.84500, 170.0
0.88000, 157.0
0.91500, 169.0
0.95000, 194.0
0.98500, 183.0
1.02000, 210.0
1.05500, 203.0
1.09000, 199.0
1.12500, 176.0
1.16000, 197.0
1.19500, 187.0
1.23000, 208.0
1.26500, 195.0
1.30000, 203.0
1.33500, 210.0
1.37000, 205.0
1.40500, 204.0
1.44000, 205.0
1.47500, 226.0
1.51000, 216.0
1.54500, 222.0
1.58000, 231.0
1.61500, 333.0
1.65000, 1267.0
1.68500, 5420.0
1.72000, 12856.0
1.75500, 14546.0
1.79000, 7690.0
1.82500, 2419.0
1.86000, 803.0
1.89500, 317.0
1.93000, 125.0
1.96500, 91.0
2.00000, 97.0
2.03500, 84.0
2.07000, 80.0
2.10500, 76.0
2.14000, 98.0
2.17500, 97.0
2.21000, 95.0
2.24500, 121.0
2.28000, 125.0
2.31500, 128.0
2.35000, 112.0
2.38500, 93.0
2.42000, 72.0
2.45500, 78.0
2.49000, 82.0
2.52500, 79.0
2.56000, 87.0
2.59500, 62.0
2.63000, 79.0
2.66500, 80.0
2.70000, 68.0
2.73500, 76.0
2.77000, 70.0
2.80500, 68.0
2.84000, 81.0
2.87500, 70.0
2.91000, 72.0
2.94500, 77.0
2.98000, 64.0
3.01500, 70.0
3.05000, 51.0
3.08500, 56.0
3.12000, 63.0
3.15500, 61.0
3.19000, 57.0
3.22500, 67.0
3.26000, 55.0
3.29500, 58.0
3.33000, 60.0
3.36500, 62.0
3.40000, 59.0
3.43500, 63.0
3.47000, 95.0
3.50500, 81.0
3.54000, 63.0
3.57500, 60.0
3.61000, 48.0
3.64500, 53.0
3.68000, 44.0
3.71500, 56.0
3.75000, 50.0
3.78500, 56.0
3.82000, 42.0
3.85500, 54.0
3.89000, 40.0
3.92500, 58.0
3.96000, 43.0
3.99500, 39.0
4.03000, 50.0
4.06500, 38.0
4.10000, 35.0
4.13500, 47.0
4.17000, 44.0
4.20500, 35.0
4.24000, 42.0
4.27500, 36.0
4.31000, 38.0
4.34500, 49.0
4.38000, 40.0
4.41500, 43.0
4.45000, 40.0
4.48500, 35.0
4.52000, 33.0
4.55500, 42.0
4.59000, 33.0
4.62500, 39.0
4.66000, 29.0
4.69500, 43.0
4.73000, 37.0
4.76500, 38.0
4.80000, 42.0
4.83500, 45.0
4.87000, 40.0
4.90500, 30.0
4.94000, 39.0
4.97500, 28.0
5.01000, 26.0
5.04500, 22.0
5.08000, 30.0
5.11500, 34.0
5.15000, 31.0
5.18500, 27.0
5.22000, 27.0
5.25500, 27.0
5.29000, 23.0
5.32500, 29.0
5.36000, 28.0
5.39500, 26.0
5.43000, 26.0
5.46500, 34.0
5.50000, 26.0
5.53500, 19.0
5.57000, 19.0
5.60500, 25.0
5.64000, 20.0
5.67500, 27.0
5.71000, 18.0
5.74500, 20.0
5.78000, 18.0
5.81500, 21.0
5.85000, 17.0
5.88500, 22.0
5.92000, 20.0
5.95500, 16.0
5.99000, 21.0
6.02500, 13.0
6.06000, 21.0
6.09500, 27.0
6.13000, 24.0
6.16500, 18.0
6.20000, 16.0
6.23500, 14.0
6.27000, 13.0
6.30500, 20.0
6.34000, 12.0
6.37500, 17.0
6.41000, 14.0
6.44500, 21.0
6.48000, 13.0
6.51500, 13.0
6.55000, 17.0
6.58500, 11.0
6.62000, 14.0
6.65500, 13.0
6.69000, 10.0
6.72500, 10.0
6.76000, 16.0
6.79500, 11.0
6.83000, 12.0
6.86500, 17.0
6.90000, 8.0
6.93500, 11.0
6.97000, 14.0
7.00500, 15.0
7.04000, 11.0
7.07500, 12.0
7.11000, 11.0
7.14500, 18.0
7.18000, 11.0
7.21500, 16.0
7.25000, 8.0
7.28500, 9.0
7.32000, 13.0
7.35500, 7.0
7.39000, 11.0
7.42500, 7.0
7.46000, 10.0
7.49500, 5.0
7.53000, 7.0
7.56500, 14.0
7.60000, 8.0
7.63500, 9.0
7.67000, 9.0
7.70500, 10.0
7.74000, 5.0
7.77500, 8.0
7.81000, 3.0
7.84500, 10.0
7.88000, 7.0
7.91500, 9.0
7.95000, 5.0
7.98500, 5.0
8.02000, 7.0
8.05500, 8.0
8.09000, 4.0
8.12500, 1.0
8.16000, 10.0
8.19500, 5.0
8.23000, 5.0
8.26500, 7.0
8.30000, 2.0
8.33500, 1.0
8.37000, 2.0
8.40500, 2.0
8.44000, 7.0
8.47500, 2.0
8.51000, 5.0
8.54500, 2.0
8.58000, 3.0
8.61500, 5.0
8.65000, 7.0
8.68500, 3.0
8.72000, 5.0
8.75500, 6.0
8.79000, 4.0
8.82500, 1.0
8.86000, 1.0
8.89500, 6.0
8.93000, 4.0
8.96500, 1.0
9.00000, 3.0
9.03500, 4.0
9.07000, 2.0
9.10500, 2.0
9.14000, 0.0
9.17500, 2.0
9.21000, 5.0
9.24500, 0.0
9.28000, 1.0
9.31500, 2.0
9.35000, 1.0
9.38500, 0.0
9.42000, 4.0
9.45500, 2.0
9.49000, 3.0
9.52500, 1.0
9.56000, 0.0
9.59500, 3.0
9.63000, 1.0
9.66500, 0.0
9.70000, 0.0
9.73500, 2.0
9.77000, 0.0
9.80500, 0.0
9.84000, 0.0
9.87500, 0.0
9.91000, 1.0
9.94500, 0.0
9.98000, 0.0
10.01500, 1.0
10.05000, 0.0
10.08500, 0.0
10.12000, 0.0
10.13500, 0.0
#ENDOFDATA   :