File: Spectras 20250424/20250425_5K_C7.txt
#FORMAT      : EMSA/MAS Spectral Data File
#VERSION     : 1.0
#TITLE       : 20250425_5K_C7
#DATE        : 24-APR-2025
#TIME        : 10:45
#OWNER       :
#NPOINTS     : 2048.0
#NCOLUMNS    : 1.0
#XUNITS      : keV
#YUNITS      : counts
#DATATYPE    : XY
#XPERCHAN    : 0.005
#OFFSET      : -0.1
#SIGNALTYPE  : EDS
#CHOFFSET    : 20.0
#LIVETIME    : 60.0
#REALTIME    : 60.8151
#BEAMKV      : 5.0
#MAGCAM      : 450.0
#XTILTSTGE   : 0.0
#AZIMANGLE   : 0.0
#ELEVANGLE   : 29.0
#XPOSITION mm: 1.8150
#YPOSITION mm: -0.9613
#ZPOSITION mm: 13.4926
##OXINSTPT   : 2
##OXINSTSTROB: 67.58
#SPECTRUM    : Spectral Data Starts Here
-0.10000, 0.0
-0.06500, 2.0
-0.03000, 65.0
0.00500, 476.0
0.04000, 1117.0
0.07500, 844.0
0.11000, 474.0
0.14500, 812.0
0.18000, 806.0
0.21500, 418.0
0.25000, 215.0
0.28500, 151.0
0.32000, 102.0
0.35500, 87.0
0.39000, 107.0
0.42500, 124.0
0.46000, 132.0
0.49500, 191.0
0.53000, 227.0
0.56500, 200.0
0.60000, 183.0
0.63500, 171.0
0.67000, 191.0
0.70500, 192.0
0.74000, 181.0
0.77500, 189.0
0.81000, 207.0
0.84500, 191.0
0.88000, 227.0
0.91500, 197.0
0.95000, 217.0
0.98500, 174.0
1.02000, 213.0
1.05500, 212.0
1.09000, 188.0
1.12500, 181.0
1.16000, 188.0
1.19500, 175.0
1.23000, 178.0
1.26500, 181.0
1.30000, 168.0
1.33500, 175.0
1.37000, 146.0
1.40500, 149.0
1.44000, 135.0
1.47500, 146.0
1.51000, 143.0
1.54500, 144.0
1.58000, 145.0
1.61500, 138.0
1.65000, 135.0
1.68500, 169.0
1.72000, 206.0
1.75500, 218.0
1.79000, 162.0
1.82500, 123.0
1.86000, 110.0
1.89500, 108.0
1.93000, 96.0
1.96500, 108.0
2.00000, 137.0
2.03500, 120.0
2.07000, 121.0
2.10500, 104.0
2.14000, 109.0
2.17500, 114.0
2.21000, 287.0
2.24500, 894.0
2.28000, 1786.0
2.31500, 2099.0
2.35000, 1462.0
2.38500, 741.0
2.42000, 449.0
2.45500, 341.0
2.49000, 248.0
2.52500, 163.0
2.56000, 104.0
2.59500, 64.0
2.63000, 67.0
2.66500, 68.0
2.70000, 59.0
2.73500, 58.0
2.77000, 51.0
2.80500, 56.0
2.84000, 46.0
2.87500, 45.0
2.91000, 49.0
2.94500, 42.0
2.98000, 45.0
3.01500, 48.0
3.05000, 34.0
3.08500, 36.0
3.12000, 43.0
3.15500, 41.0
3.19000, 44.0
3.22500, 36.0
3.26000, 46.0
3.29500, 34.0
3.33000, 40.0
3.36500, 41.0
3.40000, 35.0
3.43500, 34.0
3.47000, 27.0
3.50500, 22.0
3.54000, 27.0
3.57500, 30.0
3.61000, 37.0
3.64500, 34.0
3.68000, 16.0
3.71500, 32.0
3.75000, 23.0
3.78500, 21.0
3.82000, 23.0
3.85500, 18.0
3.89000, 24.0
3.92500, 22.0
3.96000, 29.0
3.99500, 18.0
4.03000, 21.0
4.06500, 13.0
4.10000, 18.0
4.13500, 17.0
4.17000, 21.0
4.20500, 22.0
4.24000, 17.0
4.27500, 11.0
4.31000, 14.0
4.34500, 14.0
4.38000, 12.0
4.41500, 14.0
4.45000, 17.0
4.48500, 13.0
4.52000, 15.0
4.55500, 6.0
4.59000, 11.0
4.62500, 9.0
4.66000, 9.0
4.69500, 7.0
4.73000, 8.0
4.76500, 7.0
4.80000, 6.0
4.83500, 3.0
4.87000, 4.0
4.90500, 1.0
4.94000, 0.0
4.97500, 0.0
5.01000, 0.0
5.04500, 0.0
5.08000, 0.0
5.11500, 0.0
5.15000, 0.0
5.18500, 0.0
5.22000, 0.0
5.25500, 0.0
5.29000, 0.0
5.32500, 0.0
5.36000, 0.0
5.39500, 0.0
5.43000, 0.0
5.46500, 0.0
5.50000, 0.0
5.53500, 0.0
5.57000, 1.0
5.60500, 0.0
5.64000, 0.0
5.67500, 0.0
5.71000, 0.0
5.74500, 0.0
5.78000, 0.0
5.81500, 0.0
5.85000, 0.0
5.88500, 0.0
5.92000, 0.0
5.95500, 0.0
5.99000, 0.0
6.02500, 0.0
6.06000, 0.0
6.09500, 0.0
6.13000, 0.0
6.16500, 0.0
6.20000, 0.0
6.23500, 0.0
6.27000, 0.0
6.30500, 0.0
6.34000, 0.0
6.37500, 0.0
6.41000, 0.0
6.44500, 0.0
6.48000, 0.0
6.51500, 0.0
6.55000, 0.0
6.58500, 0.0
6.62000, 0.0
6.65500, 0.0
6.69000, 0.0
6.72500, 0.0
6.76000, 0.0
6.79500, 0.0
6.83000, 0.0
6.86500, 0.0
6.90000, 0.0
6.93500, 0.0
6.97000, 0.0
7.00500, 0.0
7.04000, 0.0
7.07500, 0.0
7.11000, 0.0
7.14500, 0.0
7.18000, 0.0
7.21500, 0.0
7.25000, 0.0
7.28500, 0.0
7.32000, 0.0
7.35500, 0.0
7.39000, 0.0
7.42500, 0.0
7.46000, 0.0
7.49500, 0.0
7.53000, 0.0
7.56500, 0.0
7.60000, 0.0
7.63500, 0.0
7.67000, 0.0
7.70500, 0.0
7.74000, 0.0
7.77500, 0.0
7.81000, 0.0
7.84500, 0.0
7.88000, 0.0
7.91500, 0.0
7.95000, 0.0
7.98500, 0.0
8.02000, 0.0
8.05500, 0.0
8.09000, 0.0
8.12500, 0.0
8.16000, 0.0
8.19500, 0.0
8.23000, 0.0
8.26500, 0.0
8.30000, 0.0
8.33500, 0.0
8.37000, 0.0
8.40500, 0.0
8.44000, 0.0
8.47500, 0.0
8.51000, 0.0
8.54500, 0.0
8.58000, 0.0
8.61500, 0.0
8.65000, 0.0
8.68500, 0.0
8.72000, 0.0
8.75500, 0.0
8.79000, 0.0
8.82500, 0.0
8.86000, 0.0
8.89500, 0.0
8.93000, 0.0
8.96500, 0.0
9.00000, 0.0
9.03500, 0.0
9.07000, 0.0
9.10500, 0.0
9.14000, 0.0
9.17500, 0.0
9.21000, 0.0
9.24500, 0.0
9.28000, 0.0
9.31500, 0.0
9.35000, 0.0
9.38500, 0.0
9.42000, 0.0
9.45500, 0.0
9.49000, 0.0
9.52500, 0.0
9.56000, 0.0
9.59500, 0.0
9.63000, 0.0
9.66500, 0.0
9.70000, 0.0
9.73500, 0.0
9.77000, 0.0
9.80500, 0.0
9.84000, 0.0
9.87500, 0.0
9.91000, 0.0
9.94500, 0.0
9.98000, 0.0
10.01500, 0.0
10.05000, 0.0
10.08500, 0.0
10.12000, 0.0
10.13500, 0.0
#ENDOFDATA   :