File: Spectras 20250424/20250425_10K_C7_3.txt
#FORMAT      : EMSA/MAS Spectral Data File
#VERSION     : 1.0
#TITLE       : 20250425_10K_C7_3
#DATE        : 24-APR-2025
#TIME        : 10:42
#OWNER       :
#NPOINTS     : 2048.0
#NCOLUMNS    : 1.0
#XUNITS      : keV
#YUNITS      : counts
#DATATYPE    : XY
#XPERCHAN    : 0.005
#OFFSET      : -0.1
#SIGNALTYPE  : EDS
#CHOFFSET    : 20.0
#LIVETIME    : 60.0
#REALTIME    : 61.6076
#BEAMKV      : 10.0
#MAGCAM      : 330.0
#XTILTSTGE   : 0.0
#AZIMANGLE   : 0.0
#ELEVANGLE   : 29.0
#XPOSITION mm: 1.8218
#YPOSITION mm: -0.9598
#ZPOSITION mm: 13.5200
##OXINSTPT   : 2
##OXINSTSTROB: 67.56
#SPECTRUM    : Spectral Data Starts Here
-0.10000, 0.0
-0.06500, 4.0
-0.03000, 64.0
0.00500, 464.0
0.04000, 1052.0
0.07500, 823.0
0.11000, 432.0
0.14500, 626.0
0.18000, 547.0
0.21500, 288.0
0.25000, 214.0
0.28500, 169.0
0.32000, 89.0
0.35500, 78.0
0.39000, 69.0
0.42500, 102.0
0.46000, 175.0
0.49500, 456.0
0.53000, 599.0
0.56500, 425.0
0.60000, 211.0
0.63500, 181.0
0.67000, 173.0
0.70500, 199.0
0.74000, 192.0
0.77500, 197.0
0.81000, 200.0
0.84500, 211.0
0.88000, 226.0
0.91500, 243.0
0.95000, 238.0
0.98500, 238.0
1.02000, 237.0
1.05500, 226.0
1.09000, 245.0
1.12500, 239.0
1.16000, 233.0
1.19500, 248.0
1.23000, 233.0
1.26500, 215.0
1.30000, 241.0
1.33500, 237.0
1.37000, 228.0
1.40500, 246.0
1.44000, 231.0
1.47500, 238.0
1.51000, 258.0
1.54500, 253.0
1.58000, 246.0
1.61500, 265.0
1.65000, 568.0
1.68500, 2173.0
1.72000, 4880.0
1.75500, 5405.0
1.79000, 3116.0
1.82500, 1098.0
1.86000, 394.0
1.89500, 261.0
1.93000, 176.0
1.96500, 222.0
2.00000, 223.0
2.03500, 234.0
2.07000, 233.0
2.10500, 212.0
2.14000, 186.0
2.17500, 231.0
2.21000, 675.0
2.24500, 2037.0
2.28000, 4526.0
2.31500, 5375.0
2.35000, 3631.0
2.38500, 1959.0
2.42000, 1274.0
2.45500, 840.0
2.49000, 571.0
2.52500, 360.0
2.56000, 228.0
2.59500, 156.0
2.63000, 131.0
2.66500, 108.0
2.70000, 99.0
2.73500, 89.0
2.77000, 99.0
2.80500, 97.0
2.84000, 102.0
2.87500, 91.0
2.91000, 87.0
2.94500, 84.0
2.98000, 77.0
3.01500, 73.0
3.05000, 82.0
3.08500, 91.0
3.12000, 61.0
3.15500, 95.0
3.19000, 75.0
3.22500, 70.0
3.26000, 82.0
3.29500, 88.0
3.33000, 61.0
3.36500, 65.0
3.40000, 76.0
3.43500, 71.0
3.47000, 68.0
3.50500, 75.0
3.54000, 70.0
3.57500, 70.0
3.61000, 76.0
3.64500, 76.0
3.68000, 72.0
3.71500, 72.0
3.75000, 65.0
3.78500, 53.0
3.82000, 68.0
3.85500, 78.0
3.89000, 68.0
3.92500, 72.0
3.96000, 61.0
3.99500, 65.0
4.03000, 79.0
4.06500, 75.0
4.10000, 60.0
4.13500, 65.0
4.17000, 59.0
4.20500, 60.0
4.24000, 52.0
4.27500, 45.0
4.31000, 48.0
4.34500, 59.0
4.38000, 51.0
4.41500, 54.0
4.45000, 48.0
4.48500, 52.0
4.52000, 49.0
4.55500, 62.0
4.59000, 55.0
4.62500, 56.0
4.66000, 59.0
4.69500, 47.0
4.73000, 47.0
4.76500, 43.0
4.80000, 64.0
4.83500, 52.0
4.87000, 47.0
4.90500, 40.0
4.94000, 39.0
4.97500, 42.0
5.01000, 56.0
5.04500, 40.0
5.08000, 39.0
5.11500, 40.0
5.15000, 46.0
5.18500, 31.0
5.22000, 34.0
5.25500, 36.0
5.29000, 31.0
5.32500, 42.0
5.36000, 43.0
5.39500, 36.0
5.43000, 35.0
5.46500, 45.0
5.50000, 39.0
5.53500, 30.0
5.57000, 34.0
5.60500, 36.0
5.64000, 31.0
5.67500, 33.0
5.71000, 28.0
5.74500, 32.0
5.78000, 38.0
5.81500, 31.0
5.85000, 35.0
5.88500, 38.0
5.92000, 37.0
5.95500, 30.0
5.99000, 27.0
6.02500, 31.0
6.06000, 36.0
6.09500, 42.0
6.13000, 31.0
6.16500, 25.0
6.20000, 27.0
6.23500, 33.0
6.27000, 30.0
6.30500, 26.0
6.34000, 24.0
6.37500, 27.0
6.41000, 22.0
6.44500, 26.0
6.48000, 25.0
6.51500, 20.0
6.55000, 19.0
6.58500, 21.0
6.62000, 27.0
6.65500, 31.0
6.69000, 27.0
6.72500, 29.0
6.76000, 22.0
6.79500, 25.0
6.83000, 25.0
6.86500, 27.0
6.90000, 23.0
6.93500, 25.0
6.97000, 23.0
7.00500, 19.0
7.04000, 22.0
7.07500, 24.0
7.11000, 10.0
7.14500, 21.0
7.18000, 29.0
7.21500, 28.0
7.25000, 23.0
7.28500, 16.0
7.32000, 16.0
7.35500, 20.0
7.39000, 21.0
7.42500, 18.0
7.46000, 20.0
7.49500, 19.0
7.53000, 22.0
7.56500, 13.0
7.60000, 18.0
7.63500, 13.0
7.67000, 16.0
7.70500, 19.0
7.74000, 21.0
7.77500, 17.0
7.81000, 22.0
7.84500, 11.0
7.88000, 18.0
7.91500, 15.0
7.95000, 12.0
7.98500, 18.0
8.02000, 20.0
8.05500, 19.0
8.09000, 14.0
8.12500, 13.0
8.16000, 14.0
8.19500, 19.0
8.23000, 9.0
8.26500, 12.0
8.30000, 14.0
8.33500, 11.0
8.37000, 7.0
8.40500, 9.0
8.44000, 15.0
8.47500, 6.0
8.51000, 12.0
8.54500, 6.0
8.58000, 9.0
8.61500, 11.0
8.65000, 16.0
8.68500, 12.0
8.72000, 6.0
8.75500, 10.0
8.79000, 9.0
8.82500, 9.0
8.86000, 9.0
8.89500, 5.0
8.93000, 10.0
8.96500, 6.0
9.00000, 14.0
9.03500, 5.0
9.07000, 8.0
9.10500, 8.0
9.14000, 3.0
9.17500, 4.0
9.21000, 9.0
9.24500, 7.0
9.28000, 7.0
9.31500, 6.0
9.35000, 7.0
9.38500, 6.0
9.42000, 6.0
9.45500, 5.0
9.49000, 6.0
9.52500, 6.0
9.56000, 4.0
9.59500, 5.0
9.63000, 1.0
9.66500, 4.0
9.70000, 3.0
9.73500, 1.0
9.77000, 3.0
9.80500, 2.0
9.84000, 2.0
9.87500, 0.0
9.91000, 0.0
9.94500, 0.0
9.98000, 0.0
10.01500, 0.0
10.05000, 1.0
10.08500, 0.0
10.12000, 0.0
10.13500, 0.0
#ENDOFDATA   :