File: Spectras 20250424/20250425_10K_H12_3.txt
#FORMAT      : EMSA/MAS Spectral Data File
#VERSION     : 1.0
#TITLE       : 20250425_10K_H12_3
#DATE        : 24-APR-2025
#TIME        : 09:36
#OWNER       :
#NPOINTS     : 2048.0
#NCOLUMNS    : 1.0
#XUNITS      : keV
#YUNITS      : counts
#DATATYPE    : XY
#XPERCHAN    : 0.005
#OFFSET      : -0.1
#SIGNALTYPE  : EDS
#CHOFFSET    : 20.0
#LIVETIME    : 60.0
#REALTIME    : 61.4461
#BEAMKV      : 10.0
#MAGCAM      : 4000.0
#XTILTSTGE   : 0.0
#AZIMANGLE   : 0.0
#ELEVANGLE   : 29.0
#XPOSITION mm: 0.7570
#YPOSITION mm: 0.1853
#ZPOSITION mm: 13.4437
##OXINSTPT   : 2
##OXINSTSTROB: 67.55
##OXINSTELEMS: 42,16,14,8
##OXINSTLABEL: 42, 2.293, Mo
##OXINSTLABEL: 42, 2.395, Mo
##OXINSTLABEL: 42, 2.120, Mo
##OXINSTLABEL: 42, 2.831, Mo
##OXINSTLABEL: 42, 2.016, Mo
##OXINSTLABEL: 42, 0.193, Mo
##OXINSTLABEL: 16, 2.308, S
##OXINSTLABEL: 16, 2.464, S
##OXINSTLABEL: 14, 1.740, Si
##OXINSTLABEL: 8, 0.525, O
#SPECTRUM    : Spectral Data Starts Here
-0.10000, 0.0
-0.06500, 3.0
-0.03000, 73.0
0.00500, 476.0
0.04000, 1027.0
0.07500, 831.0
0.11000, 303.0
0.14500, 386.0
0.18000, 380.0
0.21500, 276.0
0.25000, 382.0
0.28500, 425.0
0.32000, 211.0
0.35500, 85.0
0.39000, 100.0
0.42500, 114.0
0.46000, 306.0
0.49500, 1007.0
0.53000, 1307.0
0.56500, 672.0
0.60000, 205.0
0.63500, 118.0
0.67000, 129.0
0.70500, 129.0
0.74000, 138.0
0.77500, 169.0
0.81000, 173.0
0.84500, 173.0
0.88000, 195.0
0.91500, 204.0
0.95000, 199.0
0.98500, 189.0
1.02000, 217.0
1.05500, 196.0
1.09000, 203.0
1.12500, 195.0
1.16000, 195.0
1.19500, 198.0
1.23000, 212.0
1.26500, 225.0
1.30000, 208.0
1.33500, 198.0
1.37000, 207.0
1.40500, 204.0
1.44000, 208.0
1.47500, 201.0
1.51000, 209.0
1.54500, 214.0
1.58000, 187.0
1.61500, 269.0
1.65000, 740.0
1.68500, 3030.0
1.72000, 7056.0
1.75500, 7824.0
1.79000, 4325.0
1.82500, 1429.0
1.86000, 505.0
1.89500, 247.0
1.93000, 133.0
1.96500, 128.0
2.00000, 152.0
2.03500, 161.0
2.07000, 132.0
2.10500, 113.0
2.14000, 112.0
2.17500, 135.0
2.21000, 337.0
2.24500, 978.0
2.28000, 2091.0
2.31500, 2406.0
2.35000, 1704.0
2.38500, 954.0
2.42000, 570.0
2.45500, 422.0
2.49000, 341.0
2.52500, 191.0
2.56000, 153.0
2.59500, 103.0
2.63000, 95.0
2.66500, 98.0
2.70000, 90.0
2.73500, 68.0
2.77000, 77.0
2.80500, 74.0
2.84000, 71.0
2.87500, 88.0
2.91000, 70.0
2.94500, 65.0
2.98000, 67.0
3.01500, 69.0
3.05000, 67.0
3.08500, 72.0
3.12000, 78.0
3.15500, 61.0
3.19000, 73.0
3.22500, 70.0
3.26000, 66.0
3.29500, 48.0
3.33000, 59.0
3.36500, 70.0
3.40000, 67.0
3.43500, 61.0
3.47000, 63.0
3.50500, 61.0
3.54000, 69.0
3.57500, 49.0
3.61000, 57.0
3.64500, 57.0
3.68000, 56.0
3.71500, 53.0
3.75000, 51.0
3.78500, 42.0
3.82000, 63.0
3.85500, 45.0
3.89000, 57.0
3.92500, 57.0
3.96000, 53.0
3.99500, 48.0
4.03000, 45.0
4.06500, 55.0
4.10000, 37.0
4.13500, 52.0
4.17000, 44.0
4.20500, 61.0
4.24000, 42.0
4.27500, 53.0
4.31000, 45.0
4.34500, 46.0
4.38000, 32.0
4.41500, 34.0
4.45000, 38.0
4.48500, 38.0
4.52000, 37.0
4.55500, 30.0
4.59000, 36.0
4.62500, 34.0
4.66000, 43.0
4.69500, 39.0
4.73000, 37.0
4.76500, 30.0
4.80000, 34.0
4.83500, 27.0
4.87000, 22.0
4.90500, 33.0
4.94000, 28.0
4.97500, 35.0
5.01000, 29.0
5.04500, 35.0
5.08000, 32.0
5.11500, 34.0
5.15000, 26.0
5.18500, 37.0
5.22000, 28.0
5.25500, 31.0
5.29000, 27.0
5.32500, 20.0
5.36000, 32.0
5.39500, 30.0
5.43000, 28.0
5.46500, 31.0
5.50000, 28.0
5.53500, 27.0
5.57000, 23.0
5.60500, 32.0
5.64000, 24.0
5.67500, 30.0
5.71000, 26.0
5.74500, 29.0
5.78000, 19.0
5.81500, 22.0
5.85000, 24.0
5.88500, 17.0
5.92000, 19.0
5.95500, 24.0
5.99000, 28.0
6.02500, 27.0
6.06000, 23.0
6.09500, 13.0
6.13000, 23.0
6.16500, 29.0
6.20000, 19.0
6.23500, 19.0
6.27000, 18.0
6.30500, 19.0
6.34000, 14.0
6.37500, 24.0
6.41000, 21.0
6.44500, 28.0
6.48000, 19.0
6.51500, 18.0
6.55000, 18.0
6.58500, 19.0
6.62000, 24.0
6.65500, 18.0
6.69000, 22.0
6.72500, 21.0
6.76000, 12.0
6.79500, 15.0
6.83000, 16.0
6.86500, 16.0
6.90000, 23.0
6.93500, 15.0
6.97000, 13.0
7.00500, 6.0
7.04000, 16.0
7.07500, 19.0
7.11000, 15.0
7.14500, 14.0
7.18000, 16.0
7.21500, 12.0
7.25000, 19.0
7.28500, 9.0
7.32000, 15.0
7.35500, 15.0
7.39000, 9.0
7.42500, 15.0
7.46000, 16.0
7.49500, 13.0
7.53000, 10.0
7.56500, 7.0
7.60000, 10.0
7.63500, 7.0
7.67000, 9.0
7.70500, 10.0
7.74000, 18.0
7.77500, 12.0
7.81000, 16.0
7.84500, 11.0
7.88000, 6.0
7.91500, 16.0
7.95000, 6.0
7.98500, 12.0
8.02000, 8.0
8.05500, 13.0
8.09000, 11.0
8.12500, 12.0
8.16000, 10.0
8.19500, 5.0
8.23000, 14.0
8.26500, 9.0
8.30000, 6.0
8.33500, 5.0
8.37000, 6.0
8.40500, 9.0
8.44000, 6.0
8.47500, 6.0
8.51000, 12.0
8.54500, 5.0
8.58000, 10.0
8.61500, 8.0
8.65000, 10.0
8.68500, 10.0
8.72000, 7.0
8.75500, 5.0
8.79000, 10.0
8.82500, 7.0
8.86000, 5.0
8.89500, 4.0
8.93000, 6.0
8.96500, 2.0
9.00000, 4.0
9.03500, 7.0
9.07000, 10.0
9.10500, 8.0
9.14000, 5.0
9.17500, 5.0
9.21000, 1.0
9.24500, 2.0
9.28000, 1.0
9.31500, 3.0
9.35000, 3.0
9.38500, 7.0
9.42000, 9.0
9.45500, 3.0
9.49000, 5.0
9.52500, 4.0
9.56000, 2.0
9.59500, 5.0
9.63000, 2.0
9.66500, 4.0
9.70000, 5.0
9.73500, 6.0
9.77000, 4.0
9.80500, 4.0
9.84000, 3.0
9.87500, 2.0
9.91000, 4.0
9.94500, 2.0
9.98000, 3.0
10.01500, 0.0
10.05000, 0.0
10.08500, 0.0
10.12000, 0.0
10.13500, 0.0
#ENDOFDATA   :