File: Spectras 20250424/20250425_10K_C7_2.txt
#FORMAT      : EMSA/MAS Spectral Data File
#VERSION     : 1.0
#TITLE       : 20250425_10K_C7_2
#DATE        : 24-APR-2025
#TIME        : 10:41
#OWNER       :
#NPOINTS     : 2048.0
#NCOLUMNS    : 1.0
#XUNITS      : keV
#YUNITS      : counts
#DATATYPE    : XY
#XPERCHAN    : 0.005
#OFFSET      : -0.1
#SIGNALTYPE  : EDS
#CHOFFSET    : 20.0
#LIVETIME    : 60.0
#REALTIME    : 61.5883
#BEAMKV      : 10.0
#MAGCAM      : 330.0
#XTILTSTGE   : 0.0
#AZIMANGLE   : 0.0
#ELEVANGLE   : 29.0
#XPOSITION mm: 1.8218
#YPOSITION mm: -0.9598
#ZPOSITION mm: 13.5200
##OXINSTPT   : 2
##OXINSTSTROB: 67.53
#SPECTRUM    : Spectral Data Starts Here
-0.10000, 0.0
-0.06500, 4.0
-0.03000, 72.0
0.00500, 454.0
0.04000, 1073.0
0.07500, 824.0
0.11000, 423.0
0.14500, 618.0
0.18000, 589.0
0.21500, 296.0
0.25000, 202.0
0.28500, 164.0
0.32000, 85.0
0.35500, 62.0
0.39000, 86.0
0.42500, 101.0
0.46000, 175.0
0.49500, 440.0
0.53000, 588.0
0.56500, 370.0
0.60000, 232.0
0.63500, 180.0
0.67000, 183.0
0.70500, 184.0
0.74000, 184.0
0.77500, 188.0
0.81000, 213.0
0.84500, 235.0
0.88000, 255.0
0.91500, 216.0
0.95000, 224.0
0.98500, 232.0
1.02000, 246.0
1.05500, 252.0
1.09000, 235.0
1.12500, 237.0
1.16000, 227.0
1.19500, 231.0
1.23000, 246.0
1.26500, 249.0
1.30000, 243.0
1.33500, 230.0
1.37000, 236.0
1.40500, 240.0
1.44000, 258.0
1.47500, 230.0
1.51000, 241.0
1.54500, 242.0
1.58000, 220.0
1.61500, 259.0
1.65000, 602.0
1.68500, 2154.0
1.72000, 4760.0
1.75500, 5512.0
1.79000, 2993.0
1.82500, 1034.0
1.86000, 455.0
1.89500, 233.0
1.93000, 191.0
1.96500, 185.0
2.00000, 222.0
2.03500, 269.0
2.07000, 199.0
2.10500, 187.0
2.14000, 192.0
2.17500, 230.0
2.21000, 630.0
2.24500, 2035.0
2.28000, 4426.0
2.31500, 5343.0
2.35000, 3685.0
2.38500, 1961.0
2.42000, 1224.0
2.45500, 874.0
2.49000, 611.0
2.52500, 360.0
2.56000, 199.0
2.59500, 141.0
2.63000, 116.0
2.66500, 119.0
2.70000, 89.0
2.73500, 98.0
2.77000, 96.0
2.80500, 100.0
2.84000, 93.0
2.87500, 100.0
2.91000, 90.0
2.94500, 99.0
2.98000, 88.0
3.01500, 77.0
3.05000, 75.0
3.08500, 69.0
3.12000, 75.0
3.15500, 92.0
3.19000, 70.0
3.22500, 77.0
3.26000, 85.0
3.29500, 92.0
3.33000, 73.0
3.36500, 79.0
3.40000, 74.0
3.43500, 61.0
3.47000, 77.0
3.50500, 64.0
3.54000, 85.0
3.57500, 70.0
3.61000, 69.0
3.64500, 65.0
3.68000, 63.0
3.71500, 83.0
3.75000, 75.0
3.78500, 59.0
3.82000, 63.0
3.85500, 66.0
3.89000, 58.0
3.92500, 69.0
3.96000, 56.0
3.99500, 65.0
4.03000, 69.0
4.06500, 71.0
4.10000, 58.0
4.13500, 63.0
4.17000, 50.0
4.20500, 66.0
4.24000, 46.0
4.27500, 62.0
4.31000, 61.0
4.34500, 59.0
4.38000, 50.0
4.41500, 48.0
4.45000, 41.0
4.48500, 48.0
4.52000, 60.0
4.55500, 44.0
4.59000, 51.0
4.62500, 65.0
4.66000, 57.0
4.69500, 59.0
4.73000, 54.0
4.76500, 52.0
4.80000, 57.0
4.83500, 43.0
4.87000, 45.0
4.90500, 42.0
4.94000, 39.0
4.97500, 41.0
5.01000, 48.0
5.04500, 39.0
5.08000, 35.0
5.11500, 48.0
5.15000, 49.0
5.18500, 42.0
5.22000, 50.0
5.25500, 40.0
5.29000, 36.0
5.32500, 48.0
5.36000, 38.0
5.39500, 40.0
5.43000, 32.0
5.46500, 32.0
5.50000, 33.0
5.53500, 38.0
5.57000, 45.0
5.60500, 34.0
5.64000, 51.0
5.67500, 32.0
5.71000, 23.0
5.74500, 38.0
5.78000, 29.0
5.81500, 37.0
5.85000, 31.0
5.88500, 38.0
5.92000, 26.0
5.95500, 31.0
5.99000, 36.0
6.02500, 30.0
6.06000, 27.0
6.09500, 27.0
6.13000, 31.0
6.16500, 34.0
6.20000, 34.0
6.23500, 27.0
6.27000, 28.0
6.30500, 34.0
6.34000, 27.0
6.37500, 33.0
6.41000, 32.0
6.44500, 23.0
6.48000, 26.0
6.51500, 37.0
6.55000, 22.0
6.58500, 28.0
6.62000, 26.0
6.65500, 26.0
6.69000, 20.0
6.72500, 19.0
6.76000, 26.0
6.79500, 17.0
6.83000, 28.0
6.86500, 24.0
6.90000, 24.0
6.93500, 30.0
6.97000, 20.0
7.00500, 32.0
7.04000, 21.0
7.07500, 22.0
7.11000, 22.0
7.14500, 24.0
7.18000, 15.0
7.21500, 24.0
7.25000, 15.0
7.28500, 27.0
7.32000, 15.0
7.35500, 21.0
7.39000, 17.0
7.42500, 16.0
7.46000, 24.0
7.49500, 15.0
7.53000, 19.0
7.56500, 24.0
7.60000, 16.0
7.63500, 12.0
7.67000, 8.0
7.70500, 6.0
7.74000, 17.0
7.77500, 16.0
7.81000, 14.0
7.84500, 10.0
7.88000, 14.0
7.91500, 18.0
7.95000, 12.0
7.98500, 20.0
8.02000, 15.0
8.05500, 10.0
8.09000, 14.0
8.12500, 15.0
8.16000, 14.0
8.19500, 14.0
8.23000, 15.0
8.26500, 13.0
8.30000, 12.0
8.33500, 13.0
8.37000, 14.0
8.40500, 13.0
8.44000, 10.0
8.47500, 9.0
8.51000, 15.0
8.54500, 8.0
8.58000, 8.0
8.61500, 12.0
8.65000, 10.0
8.68500, 8.0
8.72000, 12.0
8.75500, 8.0
8.79000, 13.0
8.82500, 11.0
8.86000, 14.0
8.89500, 10.0
8.93000, 13.0
8.96500, 11.0
9.00000, 8.0
9.03500, 12.0
9.07000, 7.0
9.10500, 5.0
9.14000, 10.0
9.17500, 9.0
9.21000, 7.0
9.24500, 12.0
9.28000, 7.0
9.31500, 3.0
9.35000, 7.0
9.38500, 4.0
9.42000, 5.0
9.45500, 7.0
9.49000, 7.0
9.52500, 6.0
9.56000, 0.0
9.59500, 7.0
9.63000, 4.0
9.66500, 1.0
9.70000, 4.0
9.73500, 3.0
9.77000, 2.0
9.80500, 7.0
9.84000, 1.0
9.87500, 1.0
9.91000, 0.0
9.94500, 2.0
9.98000, 0.0
10.01500, 1.0
10.05000, 0.0
10.08500, 0.0
10.12000, 0.0
10.13500, 0.0
#ENDOFDATA   :