File: Spectras 20250424/20250425_10K_B15.txt
#FORMAT      : EMSA/MAS Spectral Data File
#VERSION     : 1.0
#TITLE       : 20250425_10K_B15
#DATE        : 24-APR-2025
#TIME        : 09:44
#OWNER       :
#NPOINTS     : 2048.0
#NCOLUMNS    : 1.0
#XUNITS      : keV
#YUNITS      : counts
#DATATYPE    : XY
#XPERCHAN    : 0.005
#OFFSET      : -0.1
#SIGNALTYPE  : EDS
#CHOFFSET    : 20.0
#LIVETIME    : 60.0317
#REALTIME    : 61.7525
#BEAMKV      : 10.0
#MAGCAM      : 2200.0
#XTILTSTGE   : 0.0
#AZIMANGLE   : 0.0
#ELEVANGLE   : 29.0
#XPOSITION mm: 2.0795
#YPOSITION mm: 1.2605
#ZPOSITION mm: 13.4721
##OXINSTPT   : 2
##OXINSTSTROB: 67.54
##OXINSTELEMS: 42,16,14,8
##OXINSTLABEL: 42, 2.293, Mo
##OXINSTLABEL: 42, 2.395, Mo
##OXINSTLABEL: 42, 2.120, Mo
##OXINSTLABEL: 42, 2.831, Mo
##OXINSTLABEL: 42, 2.016, Mo
##OXINSTLABEL: 42, 0.193, Mo
##OXINSTLABEL: 16, 2.308, S
##OXINSTLABEL: 16, 2.464, S
##OXINSTLABEL: 14, 1.740, Si
##OXINSTLABEL: 8, 0.525, O
#SPECTRUM    : Spectral Data Starts Here
-0.10000, 0.0
-0.06500, 3.0
-0.03000, 59.0
0.00500, 465.0
0.04000, 1067.0
0.07500, 755.0
0.11000, 184.0
0.14500, 146.0
0.18000, 174.0
0.21500, 402.0
0.25000, 1252.0
0.28500, 1527.0
0.32000, 621.0
0.35500, 164.0
0.39000, 176.0
0.42500, 199.0
0.46000, 722.0
0.49500, 2420.0
0.53000, 3232.0
0.56500, 1492.0
0.60000, 315.0
0.63500, 92.0
0.67000, 103.0
0.70500, 104.0
0.74000, 109.0
0.77500, 134.0
0.81000, 156.0
0.84500, 178.0
0.88000, 167.0
0.91500, 169.0
0.95000, 144.0
0.98500, 195.0
1.02000, 172.0
1.05500, 195.0
1.09000, 171.0
1.12500, 180.0
1.16000, 180.0
1.19500, 179.0
1.23000, 210.0
1.26500, 211.0
1.30000, 198.0
1.33500, 190.0
1.37000, 186.0
1.40500, 172.0
1.44000, 225.0
1.47500, 215.0
1.51000, 231.0
1.54500, 214.0
1.58000, 218.0
1.61500, 265.0
1.65000, 1021.0
1.68500, 4479.0
1.72000, 10534.0
1.75500, 11567.0
1.79000, 6278.0
1.82500, 2058.0
1.86000, 700.0
1.89500, 272.0
1.93000, 151.0
1.96500, 118.0
2.00000, 111.0
2.03500, 114.0
2.07000, 87.0
2.10500, 100.0
2.14000, 80.0
2.17500, 81.0
2.21000, 139.0
2.24500, 238.0
2.28000, 404.0
2.31500, 482.0
2.35000, 327.0
2.38500, 224.0
2.42000, 159.0
2.45500, 135.0
2.49000, 102.0
2.52500, 103.0
2.56000, 95.0
2.59500, 80.0
2.63000, 69.0
2.66500, 68.0
2.70000, 65.0
2.73500, 63.0
2.77000, 70.0
2.80500, 55.0
2.84000, 61.0
2.87500, 71.0
2.91000, 78.0
2.94500, 59.0
2.98000, 62.0
3.01500, 71.0
3.05000, 66.0
3.08500, 65.0
3.12000, 58.0
3.15500, 63.0
3.19000, 53.0
3.22500, 67.0
3.26000, 51.0
3.29500, 61.0
3.33000, 70.0
3.36500, 56.0
3.40000, 63.0
3.43500, 60.0
3.47000, 69.0
3.50500, 74.0
3.54000, 75.0
3.57500, 47.0
3.61000, 53.0
3.64500, 58.0
3.68000, 47.0
3.71500, 46.0
3.75000, 48.0
3.78500, 34.0
3.82000, 41.0
3.85500, 41.0
3.89000, 40.0
3.92500, 45.0
3.96000, 45.0
3.99500, 43.0
4.03000, 40.0
4.06500, 36.0
4.10000, 42.0
4.13500, 37.0
4.17000, 36.0
4.20500, 36.0
4.24000, 43.0
4.27500, 45.0
4.31000, 38.0
4.34500, 51.0
4.38000, 30.0
4.41500, 30.0
4.45000, 29.0
4.48500, 38.0
4.52000, 31.0
4.55500, 33.0
4.59000, 31.0
4.62500, 27.0
4.66000, 26.0
4.69500, 36.0
4.73000, 30.0
4.76500, 20.0
4.80000, 26.0
4.83500, 31.0
4.87000, 34.0
4.90500, 24.0
4.94000, 26.0
4.97500, 27.0
5.01000, 26.0
5.04500, 25.0
5.08000, 20.0
5.11500, 25.0
5.15000, 29.0
5.18500, 24.0
5.22000, 36.0
5.25500, 16.0
5.29000, 25.0
5.32500, 25.0
5.36000, 27.0
5.39500, 23.0
5.43000, 20.0
5.46500, 29.0
5.50000, 21.0
5.53500, 18.0
5.57000, 24.0
5.60500, 22.0
5.64000, 10.0
5.67500, 27.0
5.71000, 22.0
5.74500, 12.0
5.78000, 24.0
5.81500, 12.0
5.85000, 16.0
5.88500, 20.0
5.92000, 12.0
5.95500, 15.0
5.99000, 13.0
6.02500, 21.0
6.06000, 13.0
6.09500, 14.0
6.13000, 15.0
6.16500, 19.0
6.20000, 13.0
6.23500, 15.0
6.27000, 16.0
6.30500, 13.0
6.34000, 11.0
6.37500, 13.0
6.41000, 14.0
6.44500, 14.0
6.48000, 14.0
6.51500, 17.0
6.55000, 19.0
6.58500, 17.0
6.62000, 7.0
6.65500, 15.0
6.69000, 19.0
6.72500, 12.0
6.76000, 20.0
6.79500, 8.0
6.83000, 13.0
6.86500, 11.0
6.90000, 15.0
6.93500, 4.0
6.97000, 19.0
7.00500, 14.0
7.04000, 11.0
7.07500, 7.0
7.11000, 12.0
7.14500, 11.0
7.18000, 12.0
7.21500, 5.0
7.25000, 7.0
7.28500, 12.0
7.32000, 9.0
7.35500, 8.0
7.39000, 7.0
7.42500, 12.0
7.46000, 5.0
7.49500, 5.0
7.53000, 9.0
7.56500, 5.0
7.60000, 11.0
7.63500, 7.0
7.67000, 8.0
7.70500, 6.0
7.74000, 6.0
7.77500, 6.0
7.81000, 8.0
7.84500, 2.0
7.88000, 4.0
7.91500, 7.0
7.95000, 5.0
7.98500, 8.0
8.02000, 6.0
8.05500, 7.0
8.09000, 4.0
8.12500, 5.0
8.16000, 3.0
8.19500, 2.0
8.23000, 5.0
8.26500, 3.0
8.30000, 3.0
8.33500, 4.0
8.37000, 5.0
8.40500, 2.0
8.44000, 1.0
8.47500, 8.0
8.51000, 7.0
8.54500, 7.0
8.58000, 2.0
8.61500, 2.0
8.65000, 4.0
8.68500, 1.0
8.72000, 4.0
8.75500, 5.0
8.79000, 6.0
8.82500, 3.0
8.86000, 6.0
8.89500, 3.0
8.93000, 2.0
8.96500, 0.0
9.00000, 4.0
9.03500, 6.0
9.07000, 6.0
9.10500, 3.0
9.14000, 0.0
9.17500, 1.0
9.21000, 1.0
9.24500, 1.0
9.28000, 0.0
9.31500, 5.0
9.35000, 1.0
9.38500, 1.0
9.42000, 0.0
9.45500, 0.0
9.49000, 0.0
9.52500, 1.0
9.56000, 2.0
9.59500, 2.0
9.63000, 1.0
9.66500, 1.0
9.70000, 0.0
9.73500, 0.0
9.77000, 0.0
9.80500, 0.0
9.84000, 0.0
9.87500, 1.0
9.91000, 0.0
9.94500, 0.0
9.98000, 0.0
10.01500, 0.0
10.05000, 0.0
10.08500, 0.0
10.12000, 0.0
10.13500, 0.0
#ENDOFDATA   :