File: Spectras 20250424/20250425_10K_H12_1.txt
#FORMAT      : EMSA/MAS Spectral Data File
#VERSION     : 1.0
#TITLE       : 20250425_10K_H12_1
#DATE        : 24-APR-2025
#TIME        : 09:34
#OWNER       :
#NPOINTS     : 2048.0
#NCOLUMNS    : 1.0
#XUNITS      : keV
#YUNITS      : counts
#DATATYPE    : XY
#XPERCHAN    : 0.005
#OFFSET      : -0.1
#SIGNALTYPE  : EDS
#CHOFFSET    : 20.0
#LIVETIME    : 60.0
#REALTIME    : 61.4916
#BEAMKV      : 10.0
#MAGCAM      : 4000.0
#XTILTSTGE   : 0.0
#AZIMANGLE   : 0.0
#ELEVANGLE   : 29.0
#XPOSITION mm: 0.7570
#YPOSITION mm: 0.1853
#ZPOSITION mm: 13.4437
##OXINSTPT   : 2
##OXINSTSTROB: 67.53
##OXINSTELEMS: 42,16,14,8
##OXINSTLABEL: 42, 2.293, Mo
##OXINSTLABEL: 42, 2.395, Mo
##OXINSTLABEL: 42, 2.120, Mo
##OXINSTLABEL: 42, 2.831, Mo
##OXINSTLABEL: 42, 2.016, Mo
##OXINSTLABEL: 42, 0.193, Mo
##OXINSTLABEL: 16, 2.308, S
##OXINSTLABEL: 16, 2.464, S
##OXINSTLABEL: 14, 1.740, Si
##OXINSTLABEL: 8, 0.525, O
#SPECTRUM    : Spectral Data Starts Here
-0.10000, 0.0
-0.06500, 2.0
-0.03000, 73.0
0.00500, 472.0
0.04000, 1011.0
0.07500, 743.0
0.11000, 290.0
0.14500, 366.0
0.18000, 399.0
0.21500, 289.0
0.25000, 393.0
0.28500, 433.0
0.32000, 202.0
0.35500, 91.0
0.39000, 91.0
0.42500, 124.0
0.46000, 309.0
0.49500, 942.0
0.53000, 1238.0
0.56500, 643.0
0.60000, 189.0
0.63500, 134.0
0.67000, 130.0
0.70500, 132.0
0.74000, 151.0
0.77500, 164.0
0.81000, 171.0
0.84500, 201.0
0.88000, 164.0
0.91500, 211.0
0.95000, 183.0
0.98500, 196.0
1.02000, 207.0
1.05500, 174.0
1.09000, 214.0
1.12500, 190.0
1.16000, 193.0
1.19500, 206.0
1.23000, 196.0
1.26500, 194.0
1.30000, 187.0
1.33500, 189.0
1.37000, 200.0
1.40500, 182.0
1.44000, 204.0
1.47500, 232.0
1.51000, 195.0
1.54500, 222.0
1.58000, 216.0
1.61500, 275.0
1.65000, 741.0
1.68500, 3044.0
1.72000, 7138.0
1.75500, 8072.0
1.79000, 4300.0
1.82500, 1423.0
1.86000, 519.0
1.89500, 254.0
1.93000, 154.0
1.96500, 138.0
2.00000, 148.0
2.03500, 162.0
2.07000, 142.0
2.10500, 127.0
2.14000, 140.0
2.17500, 173.0
2.21000, 346.0
2.24500, 1006.0
2.28000, 2065.0
2.31500, 2507.0
2.35000, 1774.0
2.38500, 976.0
2.42000, 596.0
2.45500, 466.0
2.49000, 313.0
2.52500, 187.0
2.56000, 116.0
2.59500, 92.0
2.63000, 99.0
2.66500, 83.0
2.70000, 82.0
2.73500, 68.0
2.77000, 81.0
2.80500, 95.0
2.84000, 81.0
2.87500, 74.0
2.91000, 78.0
2.94500, 78.0
2.98000, 74.0
3.01500, 78.0
3.05000, 67.0
3.08500, 74.0
3.12000, 62.0
3.15500, 64.0
3.19000, 65.0
3.22500, 59.0
3.26000, 56.0
3.29500, 64.0
3.33000, 56.0
3.36500, 59.0
3.40000, 58.0
3.43500, 64.0
3.47000, 65.0
3.50500, 64.0
3.54000, 62.0
3.57500, 54.0
3.61000, 70.0
3.64500, 48.0
3.68000, 61.0
3.71500, 54.0
3.75000, 60.0
3.78500, 66.0
3.82000, 55.0
3.85500, 55.0
3.89000, 54.0
3.92500, 43.0
3.96000, 56.0
3.99500, 46.0
4.03000, 51.0
4.06500, 48.0
4.10000, 47.0
4.13500, 41.0
4.17000, 46.0
4.20500, 52.0
4.24000, 37.0
4.27500, 36.0
4.31000, 38.0
4.34500, 48.0
4.38000, 34.0
4.41500, 40.0
4.45000, 36.0
4.48500, 47.0
4.52000, 44.0
4.55500, 45.0
4.59000, 41.0
4.62500, 37.0
4.66000, 53.0
4.69500, 43.0
4.73000, 33.0
4.76500, 38.0
4.80000, 36.0
4.83500, 43.0
4.87000, 33.0
4.90500, 48.0
4.94000, 35.0
4.97500, 40.0
5.01000, 23.0
5.04500, 39.0
5.08000, 32.0
5.11500, 33.0
5.15000, 32.0
5.18500, 38.0
5.22000, 24.0
5.25500, 30.0
5.29000, 30.0
5.32500, 25.0
5.36000, 33.0
5.39500, 32.0
5.43000, 32.0
5.46500, 29.0
5.50000, 26.0
5.53500, 28.0
5.57000, 34.0
5.60500, 25.0
5.64000, 29.0
5.67500, 27.0
5.71000, 17.0
5.74500, 18.0
5.78000, 22.0
5.81500, 25.0
5.85000, 18.0
5.88500, 20.0
5.92000, 21.0
5.95500, 27.0
5.99000, 23.0
6.02500, 18.0
6.06000, 24.0
6.09500, 22.0
6.13000, 15.0
6.16500, 23.0
6.20000, 18.0
6.23500, 16.0
6.27000, 16.0
6.30500, 15.0
6.34000, 16.0
6.37500, 16.0
6.41000, 22.0
6.44500, 21.0
6.48000, 17.0
6.51500, 18.0
6.55000, 17.0
6.58500, 18.0
6.62000, 11.0
6.65500, 22.0
6.69000, 8.0
6.72500, 11.0
6.76000, 21.0
6.79500, 20.0
6.83000, 14.0
6.86500, 11.0
6.90000, 13.0
6.93500, 10.0
6.97000, 13.0
7.00500, 12.0
7.04000, 13.0
7.07500, 14.0
7.11000, 19.0
7.14500, 13.0
7.18000, 16.0
7.21500, 20.0
7.25000, 17.0
7.28500, 22.0
7.32000, 9.0
7.35500, 17.0
7.39000, 16.0
7.42500, 15.0
7.46000, 11.0
7.49500, 9.0
7.53000, 18.0
7.56500, 7.0
7.60000, 6.0
7.63500, 13.0
7.67000, 9.0
7.70500, 7.0
7.74000, 16.0
7.77500, 7.0
7.81000, 10.0
7.84500, 18.0
7.88000, 14.0
7.91500, 11.0
7.95000, 15.0
7.98500, 14.0
8.02000, 2.0
8.05500, 8.0
8.09000, 11.0
8.12500, 12.0
8.16000, 9.0
8.19500, 10.0
8.23000, 8.0
8.26500, 10.0
8.30000, 9.0
8.33500, 6.0
8.37000, 7.0
8.40500, 12.0
8.44000, 7.0
8.47500, 13.0
8.51000, 9.0
8.54500, 9.0
8.58000, 12.0
8.61500, 2.0
8.65000, 15.0
8.68500, 8.0
8.72000, 6.0
8.75500, 9.0
8.79000, 6.0
8.82500, 4.0
8.86000, 7.0
8.89500, 13.0
8.93000, 8.0
8.96500, 5.0
9.00000, 3.0
9.03500, 3.0
9.07000, 5.0
9.10500, 1.0
9.14000, 1.0
9.17500, 6.0
9.21000, 1.0
9.24500, 7.0
9.28000, 4.0
9.31500, 7.0
9.35000, 8.0
9.38500, 4.0
9.42000, 3.0
9.45500, 4.0
9.49000, 2.0
9.52500, 4.0
9.56000, 1.0
9.59500, 4.0
9.63000, 1.0
9.66500, 3.0
9.70000, 5.0
9.73500, 4.0
9.77000, 2.0
9.80500, 4.0
9.84000, 5.0
9.87500, 2.0
9.91000, 2.0
9.94500, 3.0
9.98000, 2.0
10.01500, 1.0
10.05000, 0.0
10.08500, 1.0
10.12000, 0.0
10.13500, 0.0
#ENDOFDATA   :