File: spectrums WS2 30keV/A11_30keV_300924_A2_3.txt
#FORMAT      : EMSA/MAS Spectral Data File
#VERSION     : 1.0
#TITLE       : A11_10keV_300924_A2_3
#DATE        : 30-SEP-2024
#TIME        : 15:20
#OWNER       :
#NPOINTS     : 2048.0
#NCOLUMNS    : 1.0
#XUNITS      : keV
#YUNITS      : counts
#DATATYPE    : XY
#XPERCHAN    : 0.02
#OFFSET      : -0.4
#SIGNALTYPE  : EDS
#CHOFFSET    : 20.0
#LIVETIME    : 60.0859
#REALTIME    : 74.6272
#BEAMKV      : 30.0
#MAGCAM      : 16000.0
#XTILTSTGE   : 0.0
#AZIMANGLE   : 0.0
#ELEVANGLE   : 25.5
#XPOSITION mm: 2.4258
#YPOSITION mm: -0.8530
#ZPOSITION mm: 12.8688
##OXINSTPT   : 2
##OXINSTSTROB: 74.66
##OXINSTELEMS: 30,8,16
##OXINSTLABEL: 30, 8.639, Zn K?1
##OXINSTLABEL: 30, 9.572, Zn K?1
##OXINSTLABEL: 30, 1.012, Zn L?1,2
##OXINSTLABEL: 30, 0.906, Zn L?
##OXINSTLABEL: 30, 0.884, Zn Ll
##OXINSTLABEL: 8, 0.525, O K?1
##OXINSTLABEL: 16, 2.308, S K?1
##OXINSTLABEL: 16, 2.464, S K?1
#SPECTRUM    : Spectral Data Starts Here
-0.40000, 0.0
-0.26000, 0.0
-0.12000, 0.0
0.02000, 2305.0
0.16000, 707.0
0.30000, 847.0
0.44000, 1632.0
0.58000, 3756.0
0.72000, 734.0
0.86000, 1180.0
1.00000, 1643.0
1.14000, 2201.0
1.28000, 2791.0
1.42000, 4036.0
1.56000, 5627.0
1.70000, 336684.0
1.84000, 69240.0
1.98000, 894.0
2.12000, 731.0
2.26000, 2656.0
2.40000, 1459.0
2.54000, 937.0
2.68000, 957.0
2.82000, 1010.0
2.96000, 1131.0
3.10000, 1226.0
3.24000, 1277.0
3.38000, 2523.0
3.52000, 9489.0
3.66000, 1457.0
3.80000, 1171.0
3.94000, 1198.0
4.08000, 1265.0
4.22000, 1165.0
4.36000, 1170.0
4.50000, 1155.0
4.64000, 1136.0
4.78000, 1142.0
4.92000, 1106.0
5.06000, 1110.0
5.20000, 1289.0
5.34000, 1131.0
5.48000, 1064.0
5.62000, 1020.0
5.76000, 982.0
5.90000, 1008.0
6.04000, 1015.0
6.18000, 893.0
6.32000, 982.0
6.46000, 962.0
6.60000, 884.0
6.74000, 854.0
6.88000, 802.0
7.02000, 857.0
7.16000, 827.0
7.30000, 827.0
7.44000, 790.0
7.58000, 762.0
7.72000, 749.0
7.86000, 805.0
8.00000, 728.0
8.14000, 719.0
8.28000, 923.0
8.42000, 1341.0
8.56000, 709.0
8.70000, 657.0
8.84000, 659.0
8.98000, 641.0
9.12000, 603.0
9.26000, 589.0
9.40000, 557.0
9.54000, 675.0
9.68000, 872.0
9.82000, 635.0
9.96000, 653.0
10.10000, 589.0
10.24000, 494.0
10.38000, 483.0
10.52000, 500.0
10.66000, 474.0
10.80000, 457.0
10.94000, 418.0
11.08000, 424.0
11.22000, 445.0
11.36000, 456.0
11.50000, 415.0
11.64000, 399.0
11.78000, 358.0
11.92000, 344.0
12.06000, 339.0
12.20000, 350.0
12.34000, 335.0
12.48000, 313.0
12.62000, 315.0
12.76000, 310.0
12.90000, 261.0
13.04000, 288.0
13.18000, 268.0
13.32000, 269.0
13.46000, 246.0
13.60000, 260.0
13.74000, 258.0
13.88000, 224.0
14.02000, 240.0
14.16000, 221.0
14.30000, 197.0
14.44000, 203.0
14.58000, 190.0
14.72000, 181.0
14.86000, 165.0
15.00000, 180.0
15.14000, 168.0
15.28000, 174.0
15.42000, 148.0
15.56000, 140.0
15.70000, 146.0
15.84000, 137.0
15.98000, 136.0
16.12000, 132.0
16.26000, 130.0
16.40000, 121.0
16.54000, 129.0
16.68000, 118.0
16.82000, 111.0
16.96000, 107.0
17.10000, 102.0
17.24000, 98.0
17.38000, 92.0
17.52000, 95.0
17.66000, 103.0
17.80000, 74.0
17.94000, 96.0
18.08000, 84.0
18.22000, 71.0
18.36000, 83.0
18.50000, 82.0
18.64000, 70.0
18.78000, 71.0
18.92000, 65.0
19.06000, 71.0
19.20000, 66.0
19.34000, 54.0
19.48000, 72.0
19.62000, 52.0
19.76000, 56.0
19.90000, 62.0
20.04000, 52.0
20.18000, 42.0
20.32000, 36.0
20.46000, 38.0
20.60000, 42.0
20.74000, 39.0
20.88000, 44.0
21.02000, 33.0
21.16000, 31.0
21.30000, 37.0
21.44000, 37.0
21.58000, 38.0
21.72000, 41.0
21.86000, 29.0
22.00000, 25.0
22.14000, 30.0
22.28000, 30.0
22.42000, 25.0
22.56000, 17.0
22.70000, 18.0
22.84000, 31.0
22.98000, 22.0
23.12000, 23.0
23.26000, 17.0
23.40000, 18.0
23.54000, 12.0
23.68000, 20.0
23.82000, 18.0
23.96000, 15.0
24.10000, 13.0
24.24000, 18.0
24.38000, 14.0
24.52000, 13.0
24.66000, 16.0
24.80000, 10.0
24.94000, 19.0
25.08000, 12.0
25.22000, 16.0
25.36000, 8.0
25.50000, 11.0
25.64000, 15.0
25.78000, 8.0
25.92000, 7.0
26.06000, 9.0
26.20000, 6.0
26.34000, 9.0
26.48000, 5.0
26.62000, 7.0
26.76000, 4.0
26.90000, 7.0
27.04000, 6.0
27.18000, 5.0
27.32000, 5.0
27.46000, 1.0
27.60000, 1.0
27.74000, 6.0
27.88000, 5.0
28.02000, 3.0
28.16000, 5.0
28.30000, 4.0
28.44000, 3.0
28.58000, 3.0
28.72000, 3.0
28.86000, 3.0
29.00000, 2.0
29.14000, 2.0
29.28000, 2.0
29.42000, 2.0
29.56000, 1.0
29.70000, 3.0
29.84000, 0.0
29.98000, 0.0
30.12000, 0.0
30.26000, 0.0
30.40000, 0.0
30.54000, 1.0
30.68000, 1.0
30.82000, 0.0
30.96000, 0.0
31.10000, 1.0
31.24000, 0.0
31.38000, 0.0
31.52000, 0.0
31.66000, 0.0
31.80000, 0.0
31.94000, 0.0
32.08000, 0.0
32.22000, 0.0
32.36000, 0.0
32.50000, 1.0
32.64000, 0.0
32.78000, 0.0
32.92000, 0.0
33.06000, 0.0
33.20000, 0.0
33.34000, 0.0
33.48000, 0.0
33.62000, 0.0
33.76000, 0.0
33.90000, 0.0
34.04000, 0.0
34.18000, 0.0
34.32000, 0.0
34.46000, 0.0
34.60000, 0.0
34.74000, 0.0
34.88000, 0.0
35.02000, 0.0
35.16000, 0.0
35.30000, 0.0
35.44000, 0.0
35.58000, 0.0
35.72000, 1.0
35.86000, 0.0
36.00000, 0.0
36.14000, 0.0
36.28000, 0.0
36.42000, 0.0
36.56000, 0.0
36.70000, 0.0
36.84000, 0.0
36.98000, 0.0
37.12000, 0.0
37.26000, 0.0
37.40000, 0.0
37.54000, 0.0
37.68000, 0.0
37.82000, 0.0
37.96000, 0.0
38.10000, 0.0
38.24000, 0.0
38.38000, 0.0
38.52000, 0.0
38.66000, 0.0
38.80000, 0.0
38.94000, 0.0
39.08000, 0.0
39.22000, 0.0
39.36000, 0.0
39.50000, 0.0
39.64000, 0.0
39.78000, 0.0
39.92000, 0.0
40.06000, 0.0
40.20000, 0.0
40.34000, 0.0
40.48000, 0.0
40.54000, 0.0
#ENDOFDATA   :