File: spectrums WS2 30keV/A11_30keV_300924_A1_3.txt
#FORMAT      : EMSA/MAS Spectral Data File
#VERSION     : 1.0
#TITLE       : A11_10keV_300924_A1_3
#DATE        : 30-SEP-2024
#TIME        : 15:15
#OWNER       :
#NPOINTS     : 2048.0
#NCOLUMNS    : 1.0
#XUNITS      : keV
#YUNITS      : counts
#DATATYPE    : XY
#XPERCHAN    : 0.02
#OFFSET      : -0.4
#SIGNALTYPE  : EDS
#CHOFFSET    : 20.0
#LIVETIME    : 60.013
#REALTIME    : 74.5657
#BEAMKV      : 30.0
#MAGCAM      : 16000.0
#XTILTSTGE   : 0.0
#AZIMANGLE   : 0.0
#ELEVANGLE   : 25.5
#XPOSITION mm: 2.4275
#YPOSITION mm: -0.8455
#ZPOSITION mm: 12.8688
##OXINSTPT   : 2
##OXINSTSTROB: 74.72
##OXINSTELEMS: 30,8,16
##OXINSTLABEL: 30, 8.639, Zn K?1
##OXINSTLABEL: 30, 9.572, Zn K?1
##OXINSTLABEL: 30, 1.012, Zn L?1,2
##OXINSTLABEL: 30, 0.906, Zn L?
##OXINSTLABEL: 30, 0.884, Zn Ll
##OXINSTLABEL: 8, 0.525, O K?1
##OXINSTLABEL: 16, 2.308, S K?1
##OXINSTLABEL: 16, 2.464, S K?1
#SPECTRUM    : Spectral Data Starts Here
-0.40000, 0.0
-0.26000, 0.0
-0.12000, 0.0
0.02000, 2326.0
0.16000, 618.0
0.30000, 761.0
0.44000, 1927.0
0.58000, 4291.0
0.72000, 703.0
0.86000, 1098.0
1.00000, 1604.0
1.14000, 2156.0
1.28000, 2746.0
1.42000, 3794.0
1.56000, 5610.0
1.70000, 341047.0
1.84000, 68589.0
1.98000, 818.0
2.12000, 685.0
2.26000, 2065.0
2.40000, 1134.0
2.54000, 840.0
2.68000, 909.0
2.82000, 982.0
2.96000, 1050.0
3.10000, 1132.0
3.24000, 1249.0
3.38000, 2492.0
3.52000, 9761.0
3.66000, 1440.0
3.80000, 1105.0
3.94000, 1152.0
4.08000, 1184.0
4.22000, 1132.0
4.36000, 1128.0
4.50000, 1151.0
4.64000, 1132.0
4.78000, 1121.0
4.92000, 1127.0
5.06000, 1121.0
5.20000, 1272.0
5.34000, 1090.0
5.48000, 1035.0
5.62000, 1058.0
5.76000, 1004.0
5.90000, 1000.0
6.04000, 961.0
6.18000, 942.0
6.32000, 908.0
6.46000, 907.0
6.60000, 848.0
6.74000, 855.0
6.88000, 856.0
7.02000, 876.0
7.16000, 834.0
7.30000, 815.0
7.44000, 829.0
7.58000, 763.0
7.72000, 743.0
7.86000, 728.0
8.00000, 719.0
8.14000, 697.0
8.28000, 795.0
8.42000, 1057.0
8.56000, 695.0
8.70000, 608.0
8.84000, 624.0
8.98000, 608.0
9.12000, 623.0
9.26000, 569.0
9.40000, 557.0
9.54000, 594.0
9.68000, 713.0
9.82000, 603.0
9.96000, 575.0
10.10000, 541.0
10.24000, 482.0
10.38000, 471.0
10.52000, 453.0
10.66000, 465.0
10.80000, 426.0
10.94000, 430.0
11.08000, 427.0
11.22000, 410.0
11.36000, 401.0
11.50000, 412.0
11.64000, 410.0
11.78000, 364.0
11.92000, 349.0
12.06000, 344.0
12.20000, 327.0
12.34000, 317.0
12.48000, 310.0
12.62000, 315.0
12.76000, 284.0
12.90000, 260.0
13.04000, 289.0
13.18000, 277.0
13.32000, 255.0
13.46000, 270.0
13.60000, 241.0
13.74000, 242.0
13.88000, 212.0
14.02000, 230.0
14.16000, 199.0
14.30000, 214.0
14.44000, 194.0
14.58000, 194.0
14.72000, 181.0
14.86000, 193.0
15.00000, 169.0
15.14000, 174.0
15.28000, 162.0
15.42000, 159.0
15.56000, 174.0
15.70000, 147.0
15.84000, 147.0
15.98000, 134.0
16.12000, 133.0
16.26000, 140.0
16.40000, 121.0
16.54000, 95.0
16.68000, 118.0
16.82000, 111.0
16.96000, 98.0
17.10000, 109.0
17.24000, 89.0
17.38000, 119.0
17.52000, 102.0
17.66000, 93.0
17.80000, 95.0
17.94000, 75.0
18.08000, 84.0
18.22000, 82.0
18.36000, 78.0
18.50000, 71.0
18.64000, 74.0
18.78000, 66.0
18.92000, 65.0
19.06000, 71.0
19.20000, 52.0
19.34000, 62.0
19.48000, 49.0
19.62000, 61.0
19.76000, 51.0
19.90000, 47.0
20.04000, 51.0
20.18000, 40.0
20.32000, 37.0
20.46000, 45.0
20.60000, 42.0
20.74000, 36.0
20.88000, 38.0
21.02000, 34.0
21.16000, 45.0
21.30000, 35.0
21.44000, 39.0
21.58000, 30.0
21.72000, 32.0
21.86000, 24.0
22.00000, 29.0
22.14000, 26.0
22.28000, 29.0
22.42000, 33.0
22.56000, 19.0
22.70000, 29.0
22.84000, 17.0
22.98000, 19.0
23.12000, 23.0
23.26000, 18.0
23.40000, 17.0
23.54000, 17.0
23.68000, 15.0
23.82000, 17.0
23.96000, 15.0
24.10000, 14.0
24.24000, 18.0
24.38000, 10.0
24.52000, 17.0
24.66000, 11.0
24.80000, 8.0
24.94000, 14.0
25.08000, 13.0
25.22000, 7.0
25.36000, 11.0
25.50000, 8.0
25.64000, 5.0
25.78000, 11.0
25.92000, 5.0
26.06000, 9.0
26.20000, 7.0
26.34000, 4.0
26.48000, 5.0
26.62000, 4.0
26.76000, 6.0
26.90000, 5.0
27.04000, 2.0
27.18000, 5.0
27.32000, 6.0
27.46000, 3.0
27.60000, 3.0
27.74000, 2.0
27.88000, 5.0
28.02000, 3.0
28.16000, 4.0
28.30000, 2.0
28.44000, 2.0
28.58000, 3.0
28.72000, 2.0
28.86000, 2.0
29.00000, 0.0
29.14000, 1.0
29.28000, 1.0
29.42000, 2.0
29.56000, 0.0
29.70000, 1.0
29.84000, 1.0
29.98000, 0.0
30.12000, 0.0
30.26000, 0.0
30.40000, 1.0
30.54000, 1.0
30.68000, 1.0
30.82000, 0.0
30.96000, 1.0
31.10000, 1.0
31.24000, 1.0
31.38000, 0.0
31.52000, 0.0
31.66000, 1.0
31.80000, 1.0
31.94000, 0.0
32.08000, 0.0
32.22000, 0.0
32.36000, 1.0
32.50000, 0.0
32.64000, 0.0
32.78000, 0.0
32.92000, 0.0
33.06000, 0.0
33.20000, 0.0
33.34000, 0.0
33.48000, 0.0
33.62000, 0.0
33.76000, 0.0
33.90000, 0.0
34.04000, 0.0
34.18000, 0.0
34.32000, 0.0
34.46000, 0.0
34.60000, 0.0
34.74000, 0.0
34.88000, 0.0
35.02000, 0.0
35.16000, 0.0
35.30000, 0.0
35.44000, 0.0
35.58000, 0.0
35.72000, 0.0
35.86000, 0.0
36.00000, 0.0
36.14000, 0.0
36.28000, 0.0
36.42000, 0.0
36.56000, 0.0
36.70000, 0.0
36.84000, 0.0
36.98000, 0.0
37.12000, 0.0
37.26000, 0.0
37.40000, 0.0
37.54000, 1.0
37.68000, 0.0
37.82000, 0.0
37.96000, 0.0
38.10000, 0.0
38.24000, 0.0
38.38000, 0.0
38.52000, 0.0
38.66000, 0.0
38.80000, 0.0
38.94000, 0.0
39.08000, 0.0
39.22000, 0.0
39.36000, 0.0
39.50000, 0.0
39.64000, 1.0
39.78000, 0.0
39.92000, 0.0
40.06000, 0.0
40.20000, 0.0
40.34000, 0.0
40.48000, 0.0
40.54000, 0.0
#ENDOFDATA   :