File: spectrums WS2 30keV/A11_30keV_300924_A1_2.txt
#FORMAT      : EMSA/MAS Spectral Data File
#VERSION     : 1.0
#TITLE       : A11_10keV_300924_A1_2
#DATE        : 30-SEP-2024
#TIME        : 15:14
#OWNER       :
#NPOINTS     : 2048.0
#NCOLUMNS    : 1.0
#XUNITS      : keV
#YUNITS      : counts
#DATATYPE    : XY
#XPERCHAN    : 0.02
#OFFSET      : -0.4
#SIGNALTYPE  : EDS
#CHOFFSET    : 20.0
#LIVETIME    : 60.0299
#REALTIME    : 74.6007
#BEAMKV      : 30.0
#MAGCAM      : 16000.0
#XTILTSTGE   : 0.0
#AZIMANGLE   : 0.0
#ELEVANGLE   : 25.5
#XPOSITION mm: 2.4275
#YPOSITION mm: -0.8455
#ZPOSITION mm: 12.8688
##OXINSTPT   : 2
##OXINSTSTROB: 74.78
##OXINSTELEMS: 30,8,16
##OXINSTLABEL: 30, 8.639, Zn K?1
##OXINSTLABEL: 30, 9.572, Zn K?1
##OXINSTLABEL: 30, 1.012, Zn L?1,2
##OXINSTLABEL: 30, 0.906, Zn L?
##OXINSTLABEL: 30, 0.884, Zn Ll
##OXINSTLABEL: 8, 0.525, O K?1
##OXINSTLABEL: 16, 2.308, S K?1
##OXINSTLABEL: 16, 2.464, S K?1
#SPECTRUM    : Spectral Data Starts Here
-0.40000, 0.0
-0.26000, 0.0
-0.12000, 0.0
0.02000, 2313.0
0.16000, 592.0
0.30000, 799.0
0.44000, 1845.0
0.58000, 4455.0
0.72000, 682.0
0.86000, 1096.0
1.00000, 1604.0
1.14000, 2114.0
1.28000, 2751.0
1.42000, 3812.0
1.56000, 5653.0
1.70000, 339147.0
1.84000, 69132.0
1.98000, 843.0
2.12000, 695.0
2.26000, 2065.0
2.40000, 1162.0
2.54000, 834.0
2.68000, 881.0
2.82000, 963.0
2.96000, 1044.0
3.10000, 1135.0
3.24000, 1226.0
3.38000, 2524.0
3.52000, 9628.0
3.66000, 1451.0
3.80000, 1121.0
3.94000, 1136.0
4.08000, 1241.0
4.22000, 1152.0
4.36000, 1126.0
4.50000, 1132.0
4.64000, 1091.0
4.78000, 1112.0
4.92000, 1114.0
5.06000, 1125.0
5.20000, 1258.0
5.34000, 1108.0
5.48000, 1044.0
5.62000, 1002.0
5.76000, 988.0
5.90000, 950.0
6.04000, 947.0
6.18000, 942.0
6.32000, 916.0
6.46000, 936.0
6.60000, 872.0
6.74000, 865.0
6.88000, 835.0
7.02000, 808.0
7.16000, 824.0
7.30000, 815.0
7.44000, 807.0
7.58000, 753.0
7.72000, 762.0
7.86000, 726.0
8.00000, 725.0
8.14000, 709.0
8.28000, 782.0
8.42000, 1026.0
8.56000, 683.0
8.70000, 630.0
8.84000, 629.0
8.98000, 596.0
9.12000, 584.0
9.26000, 602.0
9.40000, 584.0
9.54000, 593.0
9.68000, 729.0
9.82000, 583.0
9.96000, 589.0
10.10000, 534.0
10.24000, 516.0
10.38000, 468.0
10.52000, 480.0
10.66000, 465.0
10.80000, 440.0
10.94000, 448.0
11.08000, 400.0
11.22000, 417.0
11.36000, 410.0
11.50000, 387.0
11.64000, 368.0
11.78000, 366.0
11.92000, 376.0
12.06000, 349.0
12.20000, 326.0
12.34000, 319.0
12.48000, 301.0
12.62000, 302.0
12.76000, 296.0
12.90000, 290.0
13.04000, 273.0
13.18000, 251.0
13.32000, 250.0
13.46000, 255.0
13.60000, 235.0
13.74000, 247.0
13.88000, 221.0
14.02000, 221.0
14.16000, 233.0
14.30000, 224.0
14.44000, 188.0
14.58000, 192.0
14.72000, 200.0
14.86000, 180.0
15.00000, 179.0
15.14000, 182.0
15.28000, 148.0
15.42000, 140.0
15.56000, 152.0
15.70000, 160.0
15.84000, 151.0
15.98000, 137.0
16.12000, 128.0
16.26000, 132.0
16.40000, 121.0
16.54000, 122.0
16.68000, 121.0
16.82000, 102.0
16.96000, 102.0
17.10000, 114.0
17.24000, 96.0
17.38000, 101.0
17.52000, 87.0
17.66000, 102.0
17.80000, 83.0
17.94000, 89.0
18.08000, 85.0
18.22000, 82.0
18.36000, 74.0
18.50000, 67.0
18.64000, 68.0
18.78000, 77.0
18.92000, 67.0
19.06000, 58.0
19.20000, 72.0
19.34000, 59.0
19.48000, 57.0
19.62000, 62.0
19.76000, 44.0
19.90000, 46.0
20.04000, 52.0
20.18000, 50.0
20.32000, 49.0
20.46000, 37.0
20.60000, 40.0
20.74000, 43.0
20.88000, 34.0
21.02000, 37.0
21.16000, 39.0
21.30000, 34.0
21.44000, 39.0
21.58000, 34.0
21.72000, 38.0
21.86000, 29.0
22.00000, 34.0
22.14000, 30.0
22.28000, 29.0
22.42000, 23.0
22.56000, 27.0
22.70000, 23.0
22.84000, 23.0
22.98000, 24.0
23.12000, 21.0
23.26000, 19.0
23.40000, 18.0
23.54000, 12.0
23.68000, 15.0
23.82000, 18.0
23.96000, 15.0
24.10000, 19.0
24.24000, 19.0
24.38000, 16.0
24.52000, 14.0
24.66000, 12.0
24.80000, 11.0
24.94000, 12.0
25.08000, 14.0
25.22000, 4.0
25.36000, 11.0
25.50000, 9.0
25.64000, 6.0
25.78000, 6.0
25.92000, 8.0
26.06000, 13.0
26.20000, 8.0
26.34000, 6.0
26.48000, 4.0
26.62000, 6.0
26.76000, 6.0
26.90000, 4.0
27.04000, 5.0
27.18000, 3.0
27.32000, 4.0
27.46000, 3.0
27.60000, 3.0
27.74000, 3.0
27.88000, 4.0
28.02000, 3.0
28.16000, 3.0
28.30000, 1.0
28.44000, 4.0
28.58000, 2.0
28.72000, 1.0
28.86000, 4.0
29.00000, 4.0
29.14000, 1.0
29.28000, 0.0
29.42000, 2.0
29.56000, 1.0
29.70000, 1.0
29.84000, 2.0
29.98000, 0.0
30.12000, 1.0
30.26000, 0.0
30.40000, 0.0
30.54000, 0.0
30.68000, 0.0
30.82000, 0.0
30.96000, 0.0
31.10000, 0.0
31.24000, 0.0
31.38000, 0.0
31.52000, 0.0
31.66000, 1.0
31.80000, 0.0
31.94000, 0.0
32.08000, 0.0
32.22000, 0.0
32.36000, 0.0
32.50000, 0.0
32.64000, 0.0
32.78000, 1.0
32.92000, 0.0
33.06000, 0.0
33.20000, 0.0
33.34000, 0.0
33.48000, 0.0
33.62000, 0.0
33.76000, 0.0
33.90000, 0.0
34.04000, 0.0
34.18000, 0.0
34.32000, 0.0
34.46000, 0.0
34.60000, 0.0
34.74000, 0.0
34.88000, 0.0
35.02000, 0.0
35.16000, 0.0
35.30000, 0.0
35.44000, 0.0
35.58000, 0.0
35.72000, 0.0
35.86000, 0.0
36.00000, 0.0
36.14000, 0.0
36.28000, 0.0
36.42000, 0.0
36.56000, 0.0
36.70000, 0.0
36.84000, 0.0
36.98000, 0.0
37.12000, 0.0
37.26000, 0.0
37.40000, 0.0
37.54000, 0.0
37.68000, 0.0
37.82000, 0.0
37.96000, 0.0
38.10000, 0.0
38.24000, 0.0
38.38000, 0.0
38.52000, 0.0
38.66000, 0.0
38.80000, 0.0
38.94000, 0.0
39.08000, 0.0
39.22000, 0.0
39.36000, 0.0
39.50000, 0.0
39.64000, 0.0
39.78000, 0.0
39.92000, 0.0
40.06000, 0.0
40.20000, 0.0
40.34000, 0.0
40.48000, 0.0
40.54000, 0.0
#ENDOFDATA   :