File: spectrums WS2 30keV/A11_30keV_300924_A2_2.txt
#FORMAT      : EMSA/MAS Spectral Data File
#VERSION     : 1.0
#TITLE       : A11_10keV_300924_A2_2
#DATE        : 30-SEP-2024
#TIME        : 15:19
#OWNER       :
#NPOINTS     : 2048.0
#NCOLUMNS    : 1.0
#XUNITS      : keV
#YUNITS      : counts
#DATATYPE    : XY
#XPERCHAN    : 0.02
#OFFSET      : -0.4
#SIGNALTYPE  : EDS
#CHOFFSET    : 20.0
#LIVETIME    : 60.1419
#REALTIME    : 74.7095
#BEAMKV      : 30.0
#MAGCAM      : 16000.0
#XTILTSTGE   : 0.0
#AZIMANGLE   : 0.0
#ELEVANGLE   : 25.5
#XPOSITION mm: 2.4258
#YPOSITION mm: -0.8530
#ZPOSITION mm: 12.8688
##OXINSTPT   : 2
##OXINSTSTROB: 74.68
##OXINSTELEMS: 30,8,16
##OXINSTLABEL: 30, 8.639, Zn K?1
##OXINSTLABEL: 30, 9.572, Zn K?1
##OXINSTLABEL: 30, 1.012, Zn L?1,2
##OXINSTLABEL: 30, 0.906, Zn L?
##OXINSTLABEL: 30, 0.884, Zn Ll
##OXINSTLABEL: 8, 0.525, O K?1
##OXINSTLABEL: 16, 2.308, S K?1
##OXINSTLABEL: 16, 2.464, S K?1
#SPECTRUM    : Spectral Data Starts Here
-0.40000, 0.0
-0.26000, 0.0
-0.12000, 0.0
0.02000, 2308.0
0.16000, 674.0
0.30000, 876.0
0.44000, 1598.0
0.58000, 3733.0
0.72000, 754.0
0.86000, 1176.0
1.00000, 1644.0
1.14000, 2194.0
1.28000, 2824.0
1.42000, 4054.0
1.56000, 5724.0
1.70000, 337546.0
1.84000, 68876.0
1.98000, 919.0
2.12000, 754.0
2.26000, 2757.0
2.40000, 1523.0
2.54000, 978.0
2.68000, 943.0
2.82000, 996.0
2.96000, 1111.0
3.10000, 1219.0
3.24000, 1260.0
3.38000, 2571.0
3.52000, 9578.0
3.66000, 1445.0
3.80000, 1187.0
3.94000, 1199.0
4.08000, 1231.0
4.22000, 1160.0
4.36000, 1201.0
4.50000, 1144.0
4.64000, 1166.0
4.78000, 1140.0
4.92000, 1094.0
5.06000, 1159.0
5.20000, 1280.0
5.34000, 1160.0
5.48000, 1061.0
5.62000, 1040.0
5.76000, 1050.0
5.90000, 1007.0
6.04000, 964.0
6.18000, 940.0
6.32000, 948.0
6.46000, 942.0
6.60000, 887.0
6.74000, 898.0
6.88000, 870.0
7.02000, 876.0
7.16000, 845.0
7.30000, 850.0
7.44000, 782.0
7.58000, 743.0
7.72000, 727.0
7.86000, 707.0
8.00000, 750.0
8.14000, 713.0
8.28000, 945.0
8.42000, 1367.0
8.56000, 701.0
8.70000, 665.0
8.84000, 611.0
8.98000, 635.0
9.12000, 600.0
9.26000, 570.0
9.40000, 615.0
9.54000, 677.0
9.68000, 837.0
9.82000, 644.0
9.96000, 664.0
10.10000, 554.0
10.24000, 506.0
10.38000, 481.0
10.52000, 497.0
10.66000, 439.0
10.80000, 441.0
10.94000, 432.0
11.08000, 404.0
11.22000, 466.0
11.36000, 445.0
11.50000, 430.0
11.64000, 396.0
11.78000, 390.0
11.92000, 369.0
12.06000, 353.0
12.20000, 347.0
12.34000, 352.0
12.48000, 328.0
12.62000, 303.0
12.76000, 328.0
12.90000, 308.0
13.04000, 270.0
13.18000, 282.0
13.32000, 269.0
13.46000, 275.0
13.60000, 240.0
13.74000, 244.0
13.88000, 256.0
14.02000, 232.0
14.16000, 220.0
14.30000, 209.0
14.44000, 207.0
14.58000, 196.0
14.72000, 190.0
14.86000, 179.0
15.00000, 197.0
15.14000, 182.0
15.28000, 170.0
15.42000, 169.0
15.56000, 179.0
15.70000, 160.0
15.84000, 148.0
15.98000, 146.0
16.12000, 148.0
16.26000, 130.0
16.40000, 127.0
16.54000, 126.0
16.68000, 124.0
16.82000, 109.0
16.96000, 110.0
17.10000, 103.0
17.24000, 109.0
17.38000, 102.0
17.52000, 95.0
17.66000, 81.0
17.80000, 91.0
17.94000, 85.0
18.08000, 76.0
18.22000, 76.0
18.36000, 73.0
18.50000, 72.0
18.64000, 79.0
18.78000, 64.0
18.92000, 64.0
19.06000, 70.0
19.20000, 55.0
19.34000, 67.0
19.48000, 61.0
19.62000, 61.0
19.76000, 57.0
19.90000, 50.0
20.04000, 48.0
20.18000, 53.0
20.32000, 44.0
20.46000, 50.0
20.60000, 37.0
20.74000, 39.0
20.88000, 39.0
21.02000, 39.0
21.16000, 40.0
21.30000, 38.0
21.44000, 30.0
21.58000, 25.0
21.72000, 31.0
21.86000, 34.0
22.00000, 34.0
22.14000, 27.0
22.28000, 27.0
22.42000, 30.0
22.56000, 29.0
22.70000, 32.0
22.84000, 26.0
22.98000, 22.0
23.12000, 20.0
23.26000, 22.0
23.40000, 19.0
23.54000, 19.0
23.68000, 19.0
23.82000, 11.0
23.96000, 18.0
24.10000, 12.0
24.24000, 18.0
24.38000, 13.0
24.52000, 13.0
24.66000, 10.0
24.80000, 15.0
24.94000, 8.0
25.08000, 11.0
25.22000, 11.0
25.36000, 9.0
25.50000, 11.0
25.64000, 8.0
25.78000, 9.0
25.92000, 9.0
26.06000, 11.0
26.20000, 5.0
26.34000, 7.0
26.48000, 4.0
26.62000, 7.0
26.76000, 5.0
26.90000, 7.0
27.04000, 4.0
27.18000, 7.0
27.32000, 6.0
27.46000, 6.0
27.60000, 6.0
27.74000, 5.0
27.88000, 2.0
28.02000, 5.0
28.16000, 4.0
28.30000, 2.0
28.44000, 2.0
28.58000, 1.0
28.72000, 2.0
28.86000, 1.0
29.00000, 3.0
29.14000, 2.0
29.28000, 2.0
29.42000, 2.0
29.56000, 0.0
29.70000, 2.0
29.84000, 3.0
29.98000, 0.0
30.12000, 0.0
30.26000, 0.0
30.40000, 0.0
30.54000, 0.0
30.68000, 0.0
30.82000, 1.0
30.96000, 1.0
31.10000, 0.0
31.24000, 0.0
31.38000, 0.0
31.52000, 0.0
31.66000, 0.0
31.80000, 0.0
31.94000, 0.0
32.08000, 0.0
32.22000, 0.0
32.36000, 0.0
32.50000, 0.0
32.64000, 0.0
32.78000, 0.0
32.92000, 0.0
33.06000, 0.0
33.20000, 0.0
33.34000, 0.0
33.48000, 0.0
33.62000, 0.0
33.76000, 0.0
33.90000, 0.0
34.04000, 1.0
34.18000, 0.0
34.32000, 0.0
34.46000, 0.0
34.60000, 0.0
34.74000, 0.0
34.88000, 0.0
35.02000, 0.0
35.16000, 0.0
35.30000, 0.0
35.44000, 1.0
35.58000, 0.0
35.72000, 0.0
35.86000, 0.0
36.00000, 0.0
36.14000, 0.0
36.28000, 0.0
36.42000, 0.0
36.56000, 0.0
36.70000, 0.0
36.84000, 0.0
36.98000, 0.0
37.12000, 0.0
37.26000, 0.0
37.40000, 0.0
37.54000, 0.0
37.68000, 0.0
37.82000, 0.0
37.96000, 0.0
38.10000, 0.0
38.24000, 0.0
38.38000, 0.0
38.52000, 0.0
38.66000, 0.0
38.80000, 0.0
38.94000, 0.0
39.08000, 0.0
39.22000, 0.0
39.36000, 0.0
39.50000, 0.0
39.64000, 0.0
39.78000, 0.0
39.92000, 0.0
40.06000, 0.0
40.20000, 0.0
40.34000, 0.0
40.48000, 0.0
40.54000, 0.0
#ENDOFDATA   :