File: spectrums WS2 30keV/A11_30keV_300924_A1_1.txt
#FORMAT      : EMSA/MAS Spectral Data File
#VERSION     : 1.0
#TITLE       : A11_10keV_300924_A1_1
#DATE        : 30-SEP-2024
#TIME        : 15:13
#OWNER       :
#NPOINTS     : 2048.0
#NCOLUMNS    : 1.0
#XUNITS      : keV
#YUNITS      : counts
#DATATYPE    : XY
#XPERCHAN    : 0.02
#OFFSET      : -0.4
#SIGNALTYPE  : EDS
#CHOFFSET    : 20.0
#LIVETIME    : 60.0386
#REALTIME    : 74.621
#BEAMKV      : 30.0
#MAGCAM      : 16000.0
#XTILTSTGE   : 0.0
#AZIMANGLE   : 0.0
#ELEVANGLE   : 25.5
#XPOSITION mm: 2.4275
#YPOSITION mm: -0.8455
#ZPOSITION mm: 12.8688
##OXINSTPT   : 2
##OXINSTSTROB: 74.68
##OXINSTELEMS: 30,8,16
##OXINSTLABEL: 30, 8.639, Zn K?1
##OXINSTLABEL: 30, 9.572, Zn K?1
##OXINSTLABEL: 30, 1.012, Zn L?1,2
##OXINSTLABEL: 30, 0.906, Zn L?
##OXINSTLABEL: 30, 0.884, Zn Ll
##OXINSTLABEL: 8, 0.525, O K?1
##OXINSTLABEL: 16, 2.308, S K?1
##OXINSTLABEL: 16, 2.464, S K?1
#SPECTRUM    : Spectral Data Starts Here
-0.40000, 0.0
-0.26000, 0.0
-0.12000, 0.0
0.02000, 2304.0
0.16000, 612.0
0.30000, 748.0
0.44000, 1937.0
0.58000, 4355.0
0.72000, 705.0
0.86000, 1085.0
1.00000, 1532.0
1.14000, 2180.0
1.28000, 2669.0
1.42000, 3895.0
1.56000, 5648.0
1.70000, 340801.0
1.84000, 68570.0
1.98000, 797.0
2.12000, 713.0
2.26000, 2073.0
2.40000, 1171.0
2.54000, 884.0
2.68000, 875.0
2.82000, 991.0
2.96000, 1104.0
3.10000, 1107.0
3.24000, 1225.0
3.38000, 2574.0
3.52000, 9745.0
3.66000, 1394.0
3.80000, 1142.0
3.94000, 1150.0
4.08000, 1188.0
4.22000, 1146.0
4.36000, 1183.0
4.50000, 1133.0
4.64000, 1121.0
4.78000, 1109.0
4.92000, 1112.0
5.06000, 1165.0
5.20000, 1289.0
5.34000, 1107.0
5.48000, 1054.0
5.62000, 1039.0
5.76000, 1040.0
5.90000, 1016.0
6.04000, 945.0
6.18000, 957.0
6.32000, 919.0
6.46000, 904.0
6.60000, 858.0
6.74000, 871.0
6.88000, 856.0
7.02000, 847.0
7.16000, 817.0
7.30000, 800.0
7.44000, 875.0
7.58000, 765.0
7.72000, 748.0
7.86000, 731.0
8.00000, 699.0
8.14000, 694.0
8.28000, 844.0
8.42000, 1018.0
8.56000, 690.0
8.70000, 637.0
8.84000, 618.0
8.98000, 587.0
9.12000, 629.0
9.26000, 583.0
9.40000, 582.0
9.54000, 629.0
9.68000, 710.0
9.82000, 588.0
9.96000, 601.0
10.10000, 552.0
10.24000, 516.0
10.38000, 474.0
10.52000, 466.0
10.66000, 441.0
10.80000, 449.0
10.94000, 417.0
11.08000, 418.0
11.22000, 414.0
11.36000, 433.0
11.50000, 399.0
11.64000, 385.0
11.78000, 372.0
11.92000, 364.0
12.06000, 342.0
12.20000, 337.0
12.34000, 326.0
12.48000, 332.0
12.62000, 296.0
12.76000, 297.0
12.90000, 292.0
13.04000, 300.0
13.18000, 274.0
13.32000, 279.0
13.46000, 288.0
13.60000, 260.0
13.74000, 237.0
13.88000, 222.0
14.02000, 214.0
14.16000, 207.0
14.30000, 201.0
14.44000, 208.0
14.58000, 177.0
14.72000, 185.0
14.86000, 181.0
15.00000, 179.0
15.14000, 173.0
15.28000, 150.0
15.42000, 147.0
15.56000, 159.0
15.70000, 162.0
15.84000, 137.0
15.98000, 141.0
16.12000, 137.0
16.26000, 124.0
16.40000, 121.0
16.54000, 119.0
16.68000, 112.0
16.82000, 106.0
16.96000, 107.0
17.10000, 108.0
17.24000, 99.0
17.38000, 109.0
17.52000, 96.0
17.66000, 93.0
17.80000, 91.0
17.94000, 83.0
18.08000, 85.0
18.22000, 76.0
18.36000, 81.0
18.50000, 77.0
18.64000, 80.0
18.78000, 69.0
18.92000, 68.0
19.06000, 64.0
19.20000, 50.0
19.34000, 60.0
19.48000, 52.0
19.62000, 54.0
19.76000, 52.0
19.90000, 57.0
20.04000, 50.0
20.18000, 44.0
20.32000, 39.0
20.46000, 42.0
20.60000, 45.0
20.74000, 32.0
20.88000, 40.0
21.02000, 43.0
21.16000, 29.0
21.30000, 34.0
21.44000, 28.0
21.58000, 28.0
21.72000, 26.0
21.86000, 30.0
22.00000, 26.0
22.14000, 29.0
22.28000, 28.0
22.42000, 24.0
22.56000, 20.0
22.70000, 24.0
22.84000, 26.0
22.98000, 16.0
23.12000, 21.0
23.26000, 19.0
23.40000, 21.0
23.54000, 14.0
23.68000, 17.0
23.82000, 11.0
23.96000, 19.0
24.10000, 16.0
24.24000, 16.0
24.38000, 14.0
24.52000, 13.0
24.66000, 16.0
24.80000, 16.0
24.94000, 18.0
25.08000, 14.0
25.22000, 8.0
25.36000, 8.0
25.50000, 7.0
25.64000, 9.0
25.78000, 7.0
25.92000, 5.0
26.06000, 9.0
26.20000, 8.0
26.34000, 7.0
26.48000, 6.0
26.62000, 4.0
26.76000, 10.0
26.90000, 8.0
27.04000, 2.0
27.18000, 4.0
27.32000, 3.0
27.46000, 3.0
27.60000, 2.0
27.74000, 3.0
27.88000, 2.0
28.02000, 3.0
28.16000, 3.0
28.30000, 2.0
28.44000, 2.0
28.58000, 1.0
28.72000, 3.0
28.86000, 2.0
29.00000, 5.0
29.14000, 1.0
29.28000, 0.0
29.42000, 2.0
29.56000, 0.0
29.70000, 2.0
29.84000, 1.0
29.98000, 1.0
30.12000, 1.0
30.26000, 0.0
30.40000, 0.0
30.54000, 1.0
30.68000, 0.0
30.82000, 1.0
30.96000, 0.0
31.10000, 0.0
31.24000, 1.0
31.38000, 0.0
31.52000, 0.0
31.66000, 0.0
31.80000, 0.0
31.94000, 0.0
32.08000, 0.0
32.22000, 0.0
32.36000, 0.0
32.50000, 0.0
32.64000, 1.0
32.78000, 0.0
32.92000, 0.0
33.06000, 0.0
33.20000, 0.0
33.34000, 0.0
33.48000, 0.0
33.62000, 0.0
33.76000, 0.0
33.90000, 0.0
34.04000, 0.0
34.18000, 0.0
34.32000, 0.0
34.46000, 0.0
34.60000, 0.0
34.74000, 0.0
34.88000, 0.0
35.02000, 0.0
35.16000, 1.0
35.30000, 0.0
35.44000, 0.0
35.58000, 0.0
35.72000, 0.0
35.86000, 0.0
36.00000, 0.0
36.14000, 0.0
36.28000, 0.0
36.42000, 0.0
36.56000, 1.0
36.70000, 0.0
36.84000, 0.0
36.98000, 0.0
37.12000, 0.0
37.26000, 0.0
37.40000, 0.0
37.54000, 1.0
37.68000, 0.0
37.82000, 1.0
37.96000, 0.0
38.10000, 0.0
38.24000, 0.0
38.38000, 0.0
38.52000, 0.0
38.66000, 0.0
38.80000, 0.0
38.94000, 0.0
39.08000, 0.0
39.22000, 0.0
39.36000, 0.0
39.50000, 0.0
39.64000, 0.0
39.78000, 0.0
39.92000, 0.0
40.06000, 0.0
40.20000, 0.0
40.34000, 0.0
40.48000, 0.0
40.54000, 0.0
#ENDOFDATA   :