File: spectrums WS2 30keV/B6_30keV_300924_A1_1.txt
#FORMAT      : EMSA/MAS Spectral Data File
#VERSION     : 1.0
#TITLE       : B6_10keV_300924_A1_1
#DATE        : 30-SEP-2024
#TIME        : 15:24
#OWNER       :
#NPOINTS     : 2048.0
#NCOLUMNS    : 1.0
#XUNITS      : keV
#YUNITS      : counts
#DATATYPE    : XY
#XPERCHAN    : 0.02
#OFFSET      : -0.4
#SIGNALTYPE  : EDS
#CHOFFSET    : 20.0
#LIVETIME    : 60.002
#REALTIME    : 75.1265
#BEAMKV      : 30.0
#MAGCAM      : 3500.0
#XTILTSTGE   : 0.0
#AZIMANGLE   : 0.0
#ELEVANGLE   : 25.5
#XPOSITION mm: 2.0680
#YPOSITION mm: 0.4145
#ZPOSITION mm: 12.8688
##OXINSTPT   : 2
##OXINSTSTROB: 74.67
##OXINSTELEMS: 30,8,16
##OXINSTLABEL: 30, 8.639, Zn K?1
##OXINSTLABEL: 30, 9.572, Zn K?1
##OXINSTLABEL: 30, 1.012, Zn L?1,2
##OXINSTLABEL: 30, 0.906, Zn L?
##OXINSTLABEL: 30, 0.884, Zn Ll
##OXINSTLABEL: 8, 0.525, O K?1
##OXINSTLABEL: 16, 2.308, S K?1
##OXINSTLABEL: 16, 2.464, S K?1
#SPECTRUM    : Spectral Data Starts Here
-0.40000, 0.0
-0.26000, 0.0
-0.12000, 0.0
0.02000, 2367.0
0.16000, 519.0
0.30000, 724.0
0.44000, 2162.0
0.58000, 4989.0
0.72000, 662.0
0.86000, 1139.0
1.00000, 1577.0
1.14000, 2198.0
1.28000, 2775.0
1.42000, 3874.0
1.56000, 5865.0
1.70000, 353628.0
1.84000, 71001.0
1.98000, 729.0
2.12000, 662.0
2.26000, 1749.0
2.40000, 1004.0
2.54000, 900.0
2.68000, 914.0
2.82000, 1046.0
2.96000, 1117.0
3.10000, 1205.0
3.24000, 1306.0
3.38000, 2714.0
3.52000, 10300.0
3.66000, 1502.0
3.80000, 1142.0
3.94000, 1200.0
4.08000, 1249.0
4.22000, 1197.0
4.36000, 1140.0
4.50000, 1210.0
4.64000, 1143.0
4.78000, 1122.0
4.92000, 1093.0
5.06000, 1124.0
5.20000, 1293.0
5.34000, 1134.0
5.48000, 1052.0
5.62000, 1073.0
5.76000, 1012.0
5.90000, 996.0
6.04000, 1017.0
6.18000, 952.0
6.32000, 936.0
6.46000, 960.0
6.60000, 923.0
6.74000, 869.0
6.88000, 874.0
7.02000, 849.0
7.16000, 813.0
7.30000, 816.0
7.44000, 785.0
7.58000, 757.0
7.72000, 735.0
7.86000, 709.0
8.00000, 713.0
8.14000, 690.0
8.28000, 728.0
8.42000, 840.0
8.56000, 653.0
8.70000, 599.0
8.84000, 626.0
8.98000, 631.0
9.12000, 578.0
9.26000, 542.0
9.40000, 547.0
9.54000, 594.0
9.68000, 634.0
9.82000, 575.0
9.96000, 557.0
10.10000, 506.0
10.24000, 501.0
10.38000, 462.0
10.52000, 452.0
10.66000, 446.0
10.80000, 441.0
10.94000, 428.0
11.08000, 398.0
11.22000, 392.0
11.36000, 390.0
11.50000, 384.0
11.64000, 373.0
11.78000, 379.0
11.92000, 323.0
12.06000, 334.0
12.20000, 346.0
12.34000, 344.0
12.48000, 337.0
12.62000, 306.0
12.76000, 327.0
12.90000, 277.0
13.04000, 277.0
13.18000, 273.0
13.32000, 254.0
13.46000, 262.0
13.60000, 255.0
13.74000, 233.0
13.88000, 237.0
14.02000, 225.0
14.16000, 227.0
14.30000, 201.0
14.44000, 224.0
14.58000, 194.0
14.72000, 189.0
14.86000, 188.0
15.00000, 179.0
15.14000, 167.0
15.28000, 178.0
15.42000, 155.0
15.56000, 154.0
15.70000, 141.0
15.84000, 145.0
15.98000, 142.0
16.12000, 141.0
16.26000, 133.0
16.40000, 102.0
16.54000, 116.0
16.68000, 113.0
16.82000, 110.0
16.96000, 101.0
17.10000, 102.0
17.24000, 98.0
17.38000, 96.0
17.52000, 84.0
17.66000, 99.0
17.80000, 97.0
17.94000, 88.0
18.08000, 84.0
18.22000, 68.0
18.36000, 75.0
18.50000, 72.0
18.64000, 64.0
18.78000, 65.0
18.92000, 69.0
19.06000, 63.0
19.20000, 63.0
19.34000, 63.0
19.48000, 48.0
19.62000, 45.0
19.76000, 55.0
19.90000, 54.0
20.04000, 47.0
20.18000, 41.0
20.32000, 42.0
20.46000, 36.0
20.60000, 45.0
20.74000, 45.0
20.88000, 45.0
21.02000, 45.0
21.16000, 35.0
21.30000, 28.0
21.44000, 26.0
21.58000, 31.0
21.72000, 26.0
21.86000, 23.0
22.00000, 26.0
22.14000, 22.0
22.28000, 32.0
22.42000, 31.0
22.56000, 24.0
22.70000, 20.0
22.84000, 19.0
22.98000, 27.0
23.12000, 14.0
23.26000, 21.0
23.40000, 19.0
23.54000, 14.0
23.68000, 15.0
23.82000, 13.0
23.96000, 13.0
24.10000, 14.0
24.24000, 15.0
24.38000, 9.0
24.52000, 16.0
24.66000, 9.0
24.80000, 14.0
24.94000, 16.0
25.08000, 10.0
25.22000, 9.0
25.36000, 7.0
25.50000, 10.0
25.64000, 9.0
25.78000, 9.0
25.92000, 9.0
26.06000, 9.0
26.20000, 7.0
26.34000, 4.0
26.48000, 6.0
26.62000, 8.0
26.76000, 9.0
26.90000, 5.0
27.04000, 3.0
27.18000, 3.0
27.32000, 1.0
27.46000, 2.0
27.60000, 3.0
27.74000, 3.0
27.88000, 4.0
28.02000, 1.0
28.16000, 3.0
28.30000, 4.0
28.44000, 0.0
28.58000, 2.0
28.72000, 2.0
28.86000, 3.0
29.00000, 5.0
29.14000, 1.0
29.28000, 0.0
29.42000, 2.0
29.56000, 1.0
29.70000, 1.0
29.84000, 2.0
29.98000, 0.0
30.12000, 0.0
30.26000, 0.0
30.40000, 0.0
30.54000, 0.0
30.68000, 0.0
30.82000, 0.0
30.96000, 0.0
31.10000, 0.0
31.24000, 0.0
31.38000, 0.0
31.52000, 0.0
31.66000, 0.0
31.80000, 1.0
31.94000, 0.0
32.08000, 0.0
32.22000, 1.0
32.36000, 0.0
32.50000, 0.0
32.64000, 0.0
32.78000, 0.0
32.92000, 0.0
33.06000, 0.0
33.20000, 0.0
33.34000, 0.0
33.48000, 0.0
33.62000, 0.0
33.76000, 0.0
33.90000, 0.0
34.04000, 0.0
34.18000, 0.0
34.32000, 0.0
34.46000, 0.0
34.60000, 0.0
34.74000, 0.0
34.88000, 0.0
35.02000, 0.0
35.16000, 0.0
35.30000, 0.0
35.44000, 0.0
35.58000, 0.0
35.72000, 0.0
35.86000, 0.0
36.00000, 0.0
36.14000, 0.0
36.28000, 0.0
36.42000, 0.0
36.56000, 0.0
36.70000, 0.0
36.84000, 1.0
36.98000, 0.0
37.12000, 0.0
37.26000, 0.0
37.40000, 0.0
37.54000, 0.0
37.68000, 0.0
37.82000, 0.0
37.96000, 0.0
38.10000, 0.0
38.24000, 0.0
38.38000, 0.0
38.52000, 0.0
38.66000, 0.0
38.80000, 0.0
38.94000, 0.0
39.08000, 0.0
39.22000, 0.0
39.36000, 0.0
39.50000, 0.0
39.64000, 0.0
39.78000, 0.0
39.92000, 0.0
40.06000, 0.0
40.20000, 1.0
40.34000, 0.0
40.48000, 0.0
40.54000, 0.0
#ENDOFDATA   :