File: spectrums WS2 30keV/B6_30keV_300924_A1_2.txt
#FORMAT      : EMSA/MAS Spectral Data File
#VERSION     : 1.0
#TITLE       : B6_10keV_300924_A1_2
#DATE        : 30-SEP-2024
#TIME        : 15:25
#OWNER       :
#NPOINTS     : 2048.0
#NCOLUMNS    : 1.0
#XUNITS      : keV
#YUNITS      : counts
#DATATYPE    : XY
#XPERCHAN    : 0.02
#OFFSET      : -0.4
#SIGNALTYPE  : EDS
#CHOFFSET    : 20.0
#LIVETIME    : 60.002
#REALTIME    : 75.1338
#BEAMKV      : 30.0
#MAGCAM      : 3500.0
#XTILTSTGE   : 0.0
#AZIMANGLE   : 0.0
#ELEVANGLE   : 25.5
#XPOSITION mm: 2.0680
#YPOSITION mm: 0.4145
#ZPOSITION mm: 12.8688
##OXINSTPT   : 2
##OXINSTSTROB: 74.73
##OXINSTELEMS: 30,8,16
##OXINSTLABEL: 30, 8.639, Zn K?1
##OXINSTLABEL: 30, 9.572, Zn K?1
##OXINSTLABEL: 30, 1.012, Zn L?1,2
##OXINSTLABEL: 30, 0.906, Zn L?
##OXINSTLABEL: 30, 0.884, Zn Ll
##OXINSTLABEL: 8, 0.525, O K?1
##OXINSTLABEL: 16, 2.308, S K?1
##OXINSTLABEL: 16, 2.464, S K?1
#SPECTRUM    : Spectral Data Starts Here
-0.40000, 0.0
-0.26000, 0.0
-0.12000, 0.0
0.02000, 2226.0
0.16000, 515.0
0.30000, 754.0
0.44000, 2202.0
0.58000, 4995.0
0.72000, 701.0
0.86000, 1112.0
1.00000, 1577.0
1.14000, 2212.0
1.28000, 2878.0
1.42000, 3997.0
1.56000, 5854.0
1.70000, 354340.0
1.84000, 70631.0
1.98000, 786.0
2.12000, 650.0
2.26000, 1772.0
2.40000, 1007.0
2.54000, 858.0
2.68000, 933.0
2.82000, 978.0
2.96000, 1108.0
3.10000, 1198.0
3.24000, 1289.0
3.38000, 2717.0
3.52000, 10333.0
3.66000, 1506.0
3.80000, 1135.0
3.94000, 1169.0
4.08000, 1206.0
4.22000, 1160.0
4.36000, 1165.0
4.50000, 1131.0
4.64000, 1149.0
4.78000, 1171.0
4.92000, 1092.0
5.06000, 1180.0
5.20000, 1328.0
5.34000, 1131.0
5.48000, 1073.0
5.62000, 1035.0
5.76000, 1048.0
5.90000, 992.0
6.04000, 1002.0
6.18000, 982.0
6.32000, 914.0
6.46000, 918.0
6.60000, 886.0
6.74000, 876.0
6.88000, 855.0
7.02000, 827.0
7.16000, 825.0
7.30000, 817.0
7.44000, 810.0
7.58000, 752.0
7.72000, 741.0
7.86000, 721.0
8.00000, 692.0
8.14000, 676.0
8.28000, 744.0
8.42000, 848.0
8.56000, 669.0
8.70000, 658.0
8.84000, 617.0
8.98000, 592.0
9.12000, 591.0
9.26000, 563.0
9.40000, 572.0
9.54000, 561.0
9.68000, 624.0
9.82000, 573.0
9.96000, 550.0
10.10000, 496.0
10.24000, 490.0
10.38000, 458.0
10.52000, 453.0
10.66000, 459.0
10.80000, 426.0
10.94000, 430.0
11.08000, 417.0
11.22000, 412.0
11.36000, 429.0
11.50000, 422.0
11.64000, 383.0
11.78000, 353.0
11.92000, 349.0
12.06000, 349.0
12.20000, 355.0
12.34000, 320.0
12.48000, 314.0
12.62000, 323.0
12.76000, 283.0
12.90000, 281.0
13.04000, 282.0
13.18000, 265.0
13.32000, 248.0
13.46000, 237.0
13.60000, 247.0
13.74000, 255.0
13.88000, 252.0
14.02000, 224.0
14.16000, 213.0
14.30000, 217.0
14.44000, 196.0
14.58000, 193.0
14.72000, 187.0
14.86000, 178.0
15.00000, 164.0
15.14000, 172.0
15.28000, 167.0
15.42000, 149.0
15.56000, 158.0
15.70000, 147.0
15.84000, 146.0
15.98000, 129.0
16.12000, 145.0
16.26000, 125.0
16.40000, 106.0
16.54000, 132.0
16.68000, 127.0
16.82000, 109.0
16.96000, 119.0
17.10000, 101.0
17.24000, 100.0
17.38000, 96.0
17.52000, 98.0
17.66000, 95.0
17.80000, 72.0
17.94000, 86.0
18.08000, 66.0
18.22000, 75.0
18.36000, 72.0
18.50000, 78.0
18.64000, 71.0
18.78000, 69.0
18.92000, 60.0
19.06000, 54.0
19.20000, 58.0
19.34000, 49.0
19.48000, 57.0
19.62000, 59.0
19.76000, 53.0
19.90000, 51.0
20.04000, 43.0
20.18000, 41.0
20.32000, 42.0
20.46000, 42.0
20.60000, 50.0
20.74000, 35.0
20.88000, 33.0
21.02000, 28.0
21.16000, 27.0
21.30000, 31.0
21.44000, 36.0
21.58000, 30.0
21.72000, 30.0
21.86000, 36.0
22.00000, 26.0
22.14000, 24.0
22.28000, 26.0
22.42000, 23.0
22.56000, 22.0
22.70000, 28.0
22.84000, 17.0
22.98000, 26.0
23.12000, 23.0
23.26000, 24.0
23.40000, 13.0
23.54000, 14.0
23.68000, 20.0
23.82000, 20.0
23.96000, 14.0
24.10000, 15.0
24.24000, 13.0
24.38000, 11.0
24.52000, 14.0
24.66000, 14.0
24.80000, 11.0
24.94000, 12.0
25.08000, 9.0
25.22000, 9.0
25.36000, 11.0
25.50000, 5.0
25.64000, 9.0
25.78000, 9.0
25.92000, 5.0
26.06000, 8.0
26.20000, 8.0
26.34000, 7.0
26.48000, 5.0
26.62000, 4.0
26.76000, 6.0
26.90000, 6.0
27.04000, 5.0
27.18000, 4.0
27.32000, 6.0
27.46000, 6.0
27.60000, 3.0
27.74000, 3.0
27.88000, 4.0
28.02000, 3.0
28.16000, 1.0
28.30000, 2.0
28.44000, 5.0
28.58000, 5.0
28.72000, 2.0
28.86000, 3.0
29.00000, 0.0
29.14000, 0.0
29.28000, 0.0
29.42000, 1.0
29.56000, 0.0
29.70000, 0.0
29.84000, 2.0
29.98000, 0.0
30.12000, 0.0
30.26000, 0.0
30.40000, 0.0
30.54000, 0.0
30.68000, 0.0
30.82000, 0.0
30.96000, 1.0
31.10000, 0.0
31.24000, 0.0
31.38000, 0.0
31.52000, 0.0
31.66000, 0.0
31.80000, 0.0
31.94000, 0.0
32.08000, 0.0
32.22000, 0.0
32.36000, 0.0
32.50000, 0.0
32.64000, 0.0
32.78000, 0.0
32.92000, 0.0
33.06000, 0.0
33.20000, 0.0
33.34000, 0.0
33.48000, 0.0
33.62000, 0.0
33.76000, 1.0
33.90000, 0.0
34.04000, 0.0
34.18000, 0.0
34.32000, 0.0
34.46000, 0.0
34.60000, 0.0
34.74000, 0.0
34.88000, 0.0
35.02000, 0.0
35.16000, 0.0
35.30000, 0.0
35.44000, 0.0
35.58000, 0.0
35.72000, 0.0
35.86000, 0.0
36.00000, 0.0
36.14000, 0.0
36.28000, 1.0
36.42000, 0.0
36.56000, 0.0
36.70000, 0.0
36.84000, 0.0
36.98000, 0.0
37.12000, 0.0
37.26000, 0.0
37.40000, 0.0
37.54000, 0.0
37.68000, 0.0
37.82000, 0.0
37.96000, 0.0
38.10000, 0.0
38.24000, 0.0
38.38000, 0.0
38.52000, 0.0
38.66000, 0.0
38.80000, 0.0
38.94000, 0.0
39.08000, 0.0
39.22000, 0.0
39.36000, 0.0
39.50000, 0.0
39.64000, 0.0
39.78000, 0.0
39.92000, 0.0
40.06000, 0.0
40.20000, 0.0
40.34000, 0.0
40.48000, 0.0
40.54000, 0.0
#ENDOFDATA   :