File: spectrums WS2 30keV/B6_30keV_300924_A3_2.txt
#FORMAT      : EMSA/MAS Spectral Data File
#VERSION     : 1.0
#TITLE       : B6_10keV_300924_A3_2
#DATE        : 30-SEP-2024
#TIME        : 15:37
#OWNER       :
#NPOINTS     : 2048.0
#NCOLUMNS    : 1.0
#XUNITS      : keV
#YUNITS      : counts
#DATATYPE    : XY
#XPERCHAN    : 0.02
#OFFSET      : -0.4
#SIGNALTYPE  : EDS
#CHOFFSET    : 20.0
#LIVETIME    : 60.0257
#REALTIME    : 75.3844
#BEAMKV      : 30.0
#MAGCAM      : 4000.0
#XTILTSTGE   : 0.0
#AZIMANGLE   : 0.0
#ELEVANGLE   : 25.5
#XPOSITION mm: 2.0360
#YPOSITION mm: 0.3273
#ZPOSITION mm: 12.8672
##OXINSTPT   : 2
##OXINSTSTROB: 74.68
##OXINSTELEMS: 30,8,16
##OXINSTLABEL: 30, 8.639, Zn K?1
##OXINSTLABEL: 30, 9.572, Zn K?1
##OXINSTLABEL: 30, 1.012, Zn L?1,2
##OXINSTLABEL: 30, 0.906, Zn L?
##OXINSTLABEL: 30, 0.884, Zn Ll
##OXINSTLABEL: 8, 0.525, O K?1
##OXINSTLABEL: 16, 2.308, S K?1
##OXINSTLABEL: 16, 2.464, S K?1
#SPECTRUM    : Spectral Data Starts Here
-0.40000, 0.0
-0.26000, 0.0
-0.12000, 0.0
0.02000, 2233.0
0.16000, 366.0
0.30000, 715.0
0.44000, 2331.0
0.58000, 5389.0
0.72000, 628.0
0.86000, 1058.0
1.00000, 1641.0
1.14000, 2203.0
1.28000, 2888.0
1.42000, 3861.0
1.56000, 5784.0
1.70000, 361482.0
1.84000, 71357.0
1.98000, 690.0
2.12000, 665.0
2.26000, 1280.0
2.40000, 800.0
2.54000, 846.0
2.68000, 964.0
2.82000, 995.0
2.96000, 1089.0
3.10000, 1156.0
3.24000, 1209.0
3.38000, 2769.0
3.52000, 10742.0
3.66000, 1470.0
3.80000, 1141.0
3.94000, 1149.0
4.08000, 1182.0
4.22000, 1107.0
4.36000, 1151.0
4.50000, 1154.0
4.64000, 1161.0
4.78000, 1139.0
4.92000, 1132.0
5.06000, 1133.0
5.20000, 1329.0
5.34000, 1119.0
5.48000, 1056.0
5.62000, 1052.0
5.76000, 1066.0
5.90000, 1001.0
6.04000, 990.0
6.18000, 959.0
6.32000, 916.0
6.46000, 905.0
6.60000, 874.0
6.74000, 860.0
6.88000, 859.0
7.02000, 826.0
7.16000, 854.0
7.30000, 809.0
7.44000, 795.0
7.58000, 754.0
7.72000, 747.0
7.86000, 762.0
8.00000, 698.0
8.14000, 687.0
8.28000, 709.0
8.42000, 678.0
8.56000, 621.0
8.70000, 635.0
8.84000, 597.0
8.98000, 602.0
9.12000, 608.0
9.26000, 553.0
9.40000, 562.0
9.54000, 536.0
9.68000, 543.0
9.82000, 527.0
9.96000, 516.0
10.10000, 531.0
10.24000, 479.0
10.38000, 486.0
10.52000, 458.0
10.66000, 457.0
10.80000, 443.0
10.94000, 444.0
11.08000, 407.0
11.22000, 424.0
11.36000, 391.0
11.50000, 401.0
11.64000, 385.0
11.78000, 324.0
11.92000, 340.0
12.06000, 321.0
12.20000, 311.0
12.34000, 341.0
12.48000, 298.0
12.62000, 285.0
12.76000, 281.0
12.90000, 275.0
13.04000, 278.0
13.18000, 266.0
13.32000, 271.0
13.46000, 262.0
13.60000, 215.0
13.74000, 244.0
13.88000, 229.0
14.02000, 242.0
14.16000, 213.0
14.30000, 208.0
14.44000, 200.0
14.58000, 180.0
14.72000, 192.0
14.86000, 186.0
15.00000, 165.0
15.14000, 166.0
15.28000, 174.0
15.42000, 168.0
15.56000, 146.0
15.70000, 148.0
15.84000, 139.0
15.98000, 124.0
16.12000, 132.0
16.26000, 112.0
16.40000, 112.0
16.54000, 124.0
16.68000, 113.0
16.82000, 107.0
16.96000, 108.0
17.10000, 111.0
17.24000, 108.0
17.38000, 96.0
17.52000, 93.0
17.66000, 79.0
17.80000, 93.0
17.94000, 78.0
18.08000, 73.0
18.22000, 78.0
18.36000, 74.0
18.50000, 81.0
18.64000, 56.0
18.78000, 74.0
18.92000, 60.0
19.06000, 61.0
19.20000, 49.0
19.34000, 50.0
19.48000, 52.0
19.62000, 52.0
19.76000, 56.0
19.90000, 51.0
20.04000, 47.0
20.18000, 39.0
20.32000, 44.0
20.46000, 43.0
20.60000, 48.0
20.74000, 34.0
20.88000, 30.0
21.02000, 39.0
21.16000, 33.0
21.30000, 35.0
21.44000, 26.0
21.58000, 28.0
21.72000, 32.0
21.86000, 29.0
22.00000, 26.0
22.14000, 28.0
22.28000, 28.0
22.42000, 20.0
22.56000, 23.0
22.70000, 17.0
22.84000, 24.0
22.98000, 22.0
23.12000, 20.0
23.26000, 24.0
23.40000, 22.0
23.54000, 12.0
23.68000, 23.0
23.82000, 18.0
23.96000, 11.0
24.10000, 15.0
24.24000, 11.0
24.38000, 13.0
24.52000, 10.0
24.66000, 10.0
24.80000, 9.0
24.94000, 17.0
25.08000, 12.0
25.22000, 13.0
25.36000, 12.0
25.50000, 7.0
25.64000, 8.0
25.78000, 7.0
25.92000, 6.0
26.06000, 9.0
26.20000, 4.0
26.34000, 3.0
26.48000, 3.0
26.62000, 4.0
26.76000, 5.0
26.90000, 8.0
27.04000, 5.0
27.18000, 2.0
27.32000, 6.0
27.46000, 4.0
27.60000, 4.0
27.74000, 3.0
27.88000, 2.0
28.02000, 4.0
28.16000, 2.0
28.30000, 2.0
28.44000, 2.0
28.58000, 2.0
28.72000, 1.0
28.86000, 3.0
29.00000, 3.0
29.14000, 0.0
29.28000, 1.0
29.42000, 0.0
29.56000, 1.0
29.70000, 0.0
29.84000, 1.0
29.98000, 0.0
30.12000, 1.0
30.26000, 1.0
30.40000, 0.0
30.54000, 0.0
30.68000, 1.0
30.82000, 0.0
30.96000, 0.0
31.10000, 0.0
31.24000, 0.0
31.38000, 0.0
31.52000, 0.0
31.66000, 1.0
31.80000, 0.0
31.94000, 0.0
32.08000, 0.0
32.22000, 0.0
32.36000, 0.0
32.50000, 0.0
32.64000, 0.0
32.78000, 0.0
32.92000, 0.0
33.06000, 0.0
33.20000, 0.0
33.34000, 0.0
33.48000, 0.0
33.62000, 0.0
33.76000, 0.0
33.90000, 0.0
34.04000, 0.0
34.18000, 2.0
34.32000, 0.0
34.46000, 0.0
34.60000, 0.0
34.74000, 0.0
34.88000, 0.0
35.02000, 0.0
35.16000, 0.0
35.30000, 0.0
35.44000, 0.0
35.58000, 0.0
35.72000, 0.0
35.86000, 1.0
36.00000, 0.0
36.14000, 0.0
36.28000, 0.0
36.42000, 0.0
36.56000, 0.0
36.70000, 0.0
36.84000, 0.0
36.98000, 0.0
37.12000, 0.0
37.26000, 0.0
37.40000, 0.0
37.54000, 0.0
37.68000, 0.0
37.82000, 0.0
37.96000, 0.0
38.10000, 1.0
38.24000, 0.0
38.38000, 0.0
38.52000, 1.0
38.66000, 0.0
38.80000, 0.0
38.94000, 0.0
39.08000, 0.0
39.22000, 0.0
39.36000, 0.0
39.50000, 0.0
39.64000, 0.0
39.78000, 0.0
39.92000, 0.0
40.06000, 0.0
40.20000, 0.0
40.34000, 0.0
40.48000, 0.0
40.54000, 0.0
#ENDOFDATA   :