File: spectrums WS2 30keV/B6_30keV_300924_A2_1.txt
#FORMAT      : EMSA/MAS Spectral Data File
#VERSION     : 1.0
#TITLE       : B6_10keV_300924_A2_1
#DATE        : 30-SEP-2024
#TIME        : 15:29
#OWNER       :
#NPOINTS     : 2048.0
#NCOLUMNS    : 1.0
#XUNITS      : keV
#YUNITS      : counts
#DATATYPE    : XY
#XPERCHAN    : 0.02
#OFFSET      : -0.4
#SIGNALTYPE  : EDS
#CHOFFSET    : 20.0
#LIVETIME    : 60.0299
#REALTIME    : 75.2086
#BEAMKV      : 30.0
#MAGCAM      : 3700.0
#XTILTSTGE   : 0.0
#AZIMANGLE   : 0.0
#ELEVANGLE   : 25.5
#XPOSITION mm: 2.0353
#YPOSITION mm: 0.4190
#ZPOSITION mm: 12.8688
##OXINSTPT   : 2
##OXINSTSTROB: 74.68
##OXINSTELEMS: 30,8,16
##OXINSTLABEL: 30, 8.639, Zn K?1
##OXINSTLABEL: 30, 9.572, Zn K?1
##OXINSTLABEL: 30, 1.012, Zn L?1,2
##OXINSTLABEL: 30, 0.906, Zn L?
##OXINSTLABEL: 30, 0.884, Zn Ll
##OXINSTLABEL: 8, 0.525, O K?1
##OXINSTLABEL: 16, 2.308, S K?1
##OXINSTLABEL: 16, 2.464, S K?1
#SPECTRUM    : Spectral Data Starts Here
-0.40000, 0.0
-0.26000, 0.0
-0.12000, 0.0
0.02000, 2319.0
0.16000, 500.0
0.30000, 746.0
0.44000, 2168.0
0.58000, 5074.0
0.72000, 662.0
0.86000, 1090.0
1.00000, 1587.0
1.14000, 2278.0
1.28000, 2849.0
1.42000, 3871.0
1.56000, 5797.0
1.70000, 355627.0
1.84000, 71288.0
1.98000, 778.0
2.12000, 651.0
2.26000, 1714.0
2.40000, 1033.0
2.54000, 857.0
2.68000, 925.0
2.82000, 1057.0
2.96000, 1089.0
3.10000, 1129.0
3.24000, 1283.0
3.38000, 2718.0
3.52000, 10442.0
3.66000, 1518.0
3.80000, 1100.0
3.94000, 1160.0
4.08000, 1211.0
4.22000, 1205.0
4.36000, 1137.0
4.50000, 1173.0
4.64000, 1157.0
4.78000, 1136.0
4.92000, 1088.0
5.06000, 1123.0
5.20000, 1293.0
5.34000, 1155.0
5.48000, 1062.0
5.62000, 1030.0
5.76000, 970.0
5.90000, 1001.0
6.04000, 965.0
6.18000, 993.0
6.32000, 959.0
6.46000, 961.0
6.60000, 874.0
6.74000, 878.0
6.88000, 888.0
7.02000, 828.0
7.16000, 872.0
7.30000, 797.0
7.44000, 788.0
7.58000, 764.0
7.72000, 749.0
7.86000, 736.0
8.00000, 721.0
8.14000, 707.0
8.28000, 768.0
8.42000, 823.0
8.56000, 665.0
8.70000, 649.0
8.84000, 610.0
8.98000, 606.0
9.12000, 604.0
9.26000, 598.0
9.40000, 528.0
9.54000, 589.0
9.68000, 634.0
9.82000, 531.0
9.96000, 545.0
10.10000, 519.0
10.24000, 489.0
10.38000, 461.0
10.52000, 449.0
10.66000, 450.0
10.80000, 449.0
10.94000, 440.0
11.08000, 430.0
11.22000, 417.0
11.36000, 401.0
11.50000, 376.0
11.64000, 386.0
11.78000, 365.0
11.92000, 357.0
12.06000, 346.0
12.20000, 338.0
12.34000, 307.0
12.48000, 306.0
12.62000, 319.0
12.76000, 318.0
12.90000, 272.0
13.04000, 282.0
13.18000, 265.0
13.32000, 267.0
13.46000, 252.0
13.60000, 246.0
13.74000, 230.0
13.88000, 221.0
14.02000, 222.0
14.16000, 206.0
14.30000, 217.0
14.44000, 200.0
14.58000, 183.0
14.72000, 188.0
14.86000, 172.0
15.00000, 175.0
15.14000, 169.0
15.28000, 172.0
15.42000, 156.0
15.56000, 149.0
15.70000, 142.0
15.84000, 125.0
15.98000, 137.0
16.12000, 142.0
16.26000, 134.0
16.40000, 118.0
16.54000, 124.0
16.68000, 130.0
16.82000, 108.0
16.96000, 115.0
17.10000, 110.0
17.24000, 95.0
17.38000, 92.0
17.52000, 91.0
17.66000, 88.0
17.80000, 86.0
17.94000, 78.0
18.08000, 85.0
18.22000, 75.0
18.36000, 79.0
18.50000, 65.0
18.64000, 69.0
18.78000, 65.0
18.92000, 62.0
19.06000, 61.0
19.20000, 58.0
19.34000, 48.0
19.48000, 59.0
19.62000, 53.0
19.76000, 43.0
19.90000, 45.0
20.04000, 45.0
20.18000, 45.0
20.32000, 42.0
20.46000, 46.0
20.60000, 41.0
20.74000, 35.0
20.88000, 38.0
21.02000, 25.0
21.16000, 36.0
21.30000, 29.0
21.44000, 24.0
21.58000, 26.0
21.72000, 38.0
21.86000, 27.0
22.00000, 27.0
22.14000, 33.0
22.28000, 21.0
22.42000, 31.0
22.56000, 19.0
22.70000, 19.0
22.84000, 18.0
22.98000, 32.0
23.12000, 20.0
23.26000, 14.0
23.40000, 16.0
23.54000, 18.0
23.68000, 22.0
23.82000, 17.0
23.96000, 19.0
24.10000, 17.0
24.24000, 16.0
24.38000, 14.0
24.52000, 6.0
24.66000, 11.0
24.80000, 11.0
24.94000, 9.0
25.08000, 11.0
25.22000, 14.0
25.36000, 12.0
25.50000, 10.0
25.64000, 6.0
25.78000, 12.0
25.92000, 12.0
26.06000, 8.0
26.20000, 8.0
26.34000, 11.0
26.48000, 4.0
26.62000, 6.0
26.76000, 4.0
26.90000, 4.0
27.04000, 3.0
27.18000, 4.0
27.32000, 1.0
27.46000, 3.0
27.60000, 6.0
27.74000, 4.0
27.88000, 2.0
28.02000, 3.0
28.16000, 6.0
28.30000, 1.0
28.44000, 2.0
28.58000, 2.0
28.72000, 1.0
28.86000, 0.0
29.00000, 1.0
29.14000, 1.0
29.28000, 1.0
29.42000, 2.0
29.56000, 1.0
29.70000, 0.0
29.84000, 1.0
29.98000, 2.0
30.12000, 0.0
30.26000, 0.0
30.40000, 1.0
30.54000, 0.0
30.68000, 0.0
30.82000, 0.0
30.96000, 0.0
31.10000, 0.0
31.24000, 1.0
31.38000, 0.0
31.52000, 0.0
31.66000, 0.0
31.80000, 0.0
31.94000, 1.0
32.08000, 0.0
32.22000, 0.0
32.36000, 0.0
32.50000, 0.0
32.64000, 0.0
32.78000, 0.0
32.92000, 0.0
33.06000, 1.0
33.20000, 0.0
33.34000, 0.0
33.48000, 1.0
33.62000, 0.0
33.76000, 0.0
33.90000, 0.0
34.04000, 0.0
34.18000, 0.0
34.32000, 0.0
34.46000, 0.0
34.60000, 0.0
34.74000, 0.0
34.88000, 0.0
35.02000, 0.0
35.16000, 0.0
35.30000, 0.0
35.44000, 0.0
35.58000, 0.0
35.72000, 0.0
35.86000, 0.0
36.00000, 0.0
36.14000, 0.0
36.28000, 0.0
36.42000, 0.0
36.56000, 0.0
36.70000, 0.0
36.84000, 0.0
36.98000, 0.0
37.12000, 0.0
37.26000, 0.0
37.40000, 0.0
37.54000, 0.0
37.68000, 0.0
37.82000, 0.0
37.96000, 0.0
38.10000, 0.0
38.24000, 0.0
38.38000, 0.0
38.52000, 0.0
38.66000, 0.0
38.80000, 0.0
38.94000, 0.0
39.08000, 0.0
39.22000, 0.0
39.36000, 0.0
39.50000, 0.0
39.64000, 0.0
39.78000, 0.0
39.92000, 0.0
40.06000, 0.0
40.20000, 0.0
40.34000, 0.0
40.48000, 0.0
40.54000, 0.0
#ENDOFDATA   :