File: Spectras 300724/A10_10k_310724_2.txt
#FORMAT      : EMSA/MAS Spectral Data File
#VERSION     : 1.0
#TITLE       : A10_10k_310724_2
#DATE        : 30-JUL-2024
#TIME        : 10:11
#OWNER       :
#NPOINTS     : 2048.0
#NCOLUMNS    : 1.0
#XUNITS      : keV
#YUNITS      : counts
#DATATYPE    : XY
#XPERCHAN    : 0.005
#OFFSET      : -0.1
#SIGNALTYPE  : EDS
#CHOFFSET    : 20.0
#LIVETIME    : 60.0298
#REALTIME    : 60.7725
#BEAMKV      : 10.0
#MAGCAM      : 4500.0
#XTILTSTGE   : 0.0
#AZIMANGLE   : 0.0
#ELEVANGLE   : 25.5
#XPOSITION mm: -0.4115
#YPOSITION mm: -1.5498
#ZPOSITION mm: 13.8532
##OXINSTPT   : 2
##OXINSTSTROB: 69.68
##OXINSTELEMS: 6,8,29,79,78,14
##OXINSTLABEL: 6, 0.277, C K?1_2
##OXINSTLABEL: 8, 0.525, O K?1
##OXINSTLABEL: 29, 8.048, Cu K?1
##OXINSTLABEL: 29, 8.905, Cu K?1
##OXINSTLABEL: 29, 0.930, Cu L?1,2
##OXINSTLABEL: 29, 0.832, Cu L?
##OXINSTLABEL: 29, 0.811, Cu Ll
##OXINSTLABEL: 79, 9.713, Au L?1
##OXINSTLABEL: 79, 8.494, Au Ll
##OXINSTLABEL: 79, 2.123, Au M?1
##OXINSTLABEL: 79, 2.410, Au M?
##OXINSTLABEL: 79, 1.648, Au M?2
##OXINSTLABEL: 79, 0.265, Au N4-N6
##OXINSTLABEL: 79, 0.251, Au N5-N6,7
##OXINSTLABEL: 78, 9.442, Pt L?1
##OXINSTLABEL: 78, 9.975, Pt L?
##OXINSTLABEL: 78, 8.268, Pt Ll
##OXINSTLABEL: 78, 2.050, Pt M?1
##OXINSTLABEL: 78, 2.331, Pt M?
##OXINSTLABEL: 78, 1.592, Pt M?2
##OXINSTLABEL: 78, 0.258, Pt N4-N6
##OXINSTLABEL: 78, 0.244, Pt N5-N6,7
##OXINSTLABEL: 14, 1.740, Si K?1
#SPECTRUM    : Spectral Data Starts Here
-0.10000, 0.0
-0.06500, 4.0
-0.03000, 90.0
0.00500, 707.0
0.04000, 1334.0
0.07500, 884.0
0.11000, 225.0
0.14500, 189.0
0.18000, 149.0
0.21500, 76.0
0.25000, 42.0
0.28500, 35.0
0.32000, 11.0
0.35500, 11.0
0.39000, 10.0
0.42500, 20.0
0.46000, 23.0
0.49500, 26.0
0.53000, 55.0
0.56500, 60.0
0.60000, 57.0
0.63500, 47.0
0.67000, 45.0
0.70500, 38.0
0.74000, 50.0
0.77500, 48.0
0.81000, 50.0
0.84500, 47.0
0.88000, 52.0
0.91500, 55.0
0.95000, 57.0
0.98500, 53.0
1.02000, 57.0
1.05500, 53.0
1.09000, 57.0
1.12500, 62.0
1.16000, 60.0
1.19500, 65.0
1.23000, 50.0
1.26500, 53.0
1.30000, 55.0
1.33500, 53.0
1.37000, 58.0
1.40500, 65.0
1.44000, 51.0
1.47500, 59.0
1.51000, 51.0
1.54500, 52.0
1.58000, 48.0
1.61500, 56.0
1.65000, 62.0
1.68500, 61.0
1.72000, 68.0
1.75500, 77.0
1.79000, 66.0
1.82500, 48.0
1.86000, 45.0
1.89500, 44.0
1.93000, 51.0
1.96500, 52.0
2.00000, 64.0
2.03500, 77.0
2.07000, 56.0
2.10500, 61.0
2.14000, 58.0
2.17500, 83.0
2.21000, 250.0
2.24500, 747.0
2.28000, 1603.0
2.31500, 1906.0
2.35000, 1334.0
2.38500, 707.0
2.42000, 417.0
2.45500, 300.0
2.49000, 176.0
2.52500, 125.0
2.56000, 60.0
2.59500, 39.0
2.63000, 33.0
2.66500, 29.0
2.70000, 27.0
2.73500, 21.0
2.77000, 23.0
2.80500, 22.0
2.84000, 28.0
2.87500, 22.0
2.91000, 23.0
2.94500, 24.0
2.98000, 25.0
3.01500, 17.0
3.05000, 21.0
3.08500, 15.0
3.12000, 16.0
3.15500, 21.0
3.19000, 24.0
3.22500, 11.0
3.26000, 20.0
3.29500, 14.0
3.33000, 20.0
3.36500, 16.0
3.40000, 22.0
3.43500, 29.0
3.47000, 20.0
3.50500, 14.0
3.54000, 9.0
3.57500, 19.0
3.61000, 15.0
3.64500, 21.0
3.68000, 22.0
3.71500, 13.0
3.75000, 25.0
3.78500, 16.0
3.82000, 15.0
3.85500, 16.0
3.89000, 23.0
3.92500, 18.0
3.96000, 15.0
3.99500, 13.0
4.03000, 15.0
4.06500, 21.0
4.10000, 17.0
4.13500, 18.0
4.17000, 15.0
4.20500, 9.0
4.24000, 17.0
4.27500, 14.0
4.31000, 11.0
4.34500, 14.0
4.38000, 23.0
4.41500, 12.0
4.45000, 20.0
4.48500, 13.0
4.52000, 17.0
4.55500, 13.0
4.59000, 8.0
4.62500, 13.0
4.66000, 10.0
4.69500, 18.0
4.73000, 19.0
4.76500, 6.0
4.80000, 13.0
4.83500, 16.0
4.87000, 13.0
4.90500, 10.0
4.94000, 9.0
4.97500, 11.0
5.01000, 11.0
5.04500, 10.0
5.08000, 13.0
5.11500, 14.0
5.15000, 10.0
5.18500, 14.0
5.22000, 11.0
5.25500, 13.0
5.29000, 9.0
5.32500, 6.0
5.36000, 13.0
5.39500, 9.0
5.43000, 12.0
5.46500, 12.0
5.50000, 13.0
5.53500, 11.0
5.57000, 9.0
5.60500, 12.0
5.64000, 14.0
5.67500, 13.0
5.71000, 8.0
5.74500, 9.0
5.78000, 9.0
5.81500, 8.0
5.85000, 12.0
5.88500, 8.0
5.92000, 8.0
5.95500, 9.0
5.99000, 8.0
6.02500, 9.0
6.06000, 9.0
6.09500, 8.0
6.13000, 7.0
6.16500, 11.0
6.20000, 9.0
6.23500, 7.0
6.27000, 5.0
6.30500, 8.0
6.34000, 12.0
6.37500, 10.0
6.41000, 7.0
6.44500, 9.0
6.48000, 8.0
6.51500, 6.0
6.55000, 7.0
6.58500, 5.0
6.62000, 10.0
6.65500, 6.0
6.69000, 6.0
6.72500, 6.0
6.76000, 6.0
6.79500, 7.0
6.83000, 6.0
6.86500, 4.0
6.90000, 8.0
6.93500, 4.0
6.97000, 5.0
7.00500, 9.0
7.04000, 6.0
7.07500, 7.0
7.11000, 9.0
7.14500, 7.0
7.18000, 7.0
7.21500, 4.0
7.25000, 6.0
7.28500, 4.0
7.32000, 4.0
7.35500, 4.0
7.39000, 4.0
7.42500, 5.0
7.46000, 4.0
7.49500, 4.0
7.53000, 6.0
7.56500, 6.0
7.60000, 4.0
7.63500, 8.0
7.67000, 5.0
7.70500, 4.0
7.74000, 4.0
7.77500, 2.0
7.81000, 4.0
7.84500, 3.0
7.88000, 1.0
7.91500, 4.0
7.95000, 1.0
7.98500, 3.0
8.02000, 3.0
8.05500, 5.0
8.09000, 2.0
8.12500, 3.0
8.16000, 4.0
8.19500, 3.0
8.23000, 4.0
8.26500, 5.0
8.30000, 3.0
8.33500, 3.0
8.37000, 3.0
8.40500, 4.0
8.44000, 6.0
8.47500, 3.0
8.51000, 4.0
8.54500, 2.0
8.58000, 2.0
8.61500, 3.0
8.65000, 1.0
8.68500, 1.0
8.72000, 1.0
8.75500, 2.0
8.79000, 1.0
8.82500, 1.0
8.86000, 5.0
8.89500, 1.0
8.93000, 0.0
8.96500, 2.0
9.00000, 2.0
9.03500, 1.0
9.07000, 1.0
9.10500, 0.0
9.14000, 1.0
9.17500, 2.0
9.21000, 1.0
9.24500, 1.0
9.28000, 4.0
9.31500, 1.0
9.35000, 0.0
9.38500, 3.0
9.42000, 0.0
9.45500, 2.0
9.49000, 1.0
9.52500, 0.0
9.56000, 0.0
9.59500, 0.0
9.63000, 0.0
9.66500, 1.0
9.70000, 0.0
9.73500, 0.0
9.77000, 1.0
9.80500, 0.0
9.84000, 0.0
9.87500, 0.0
9.91000, 0.0
9.94500, 0.0
9.98000, 0.0
10.01500, 0.0
10.05000, 0.0
10.08500, 0.0
10.12000, 0.0
10.13500, 0.0
#ENDOFDATA   :