File: Spectras 300724/B15_10k_310724_5.txt
#FORMAT      : EMSA/MAS Spectral Data File
#VERSION     : 1.0
#TITLE       : B15_10k_310724_5
#DATE        : 30-JUL-2024
#TIME        : 09:43
#OWNER       :
#NPOINTS     : 1024.0
#NCOLUMNS    : 1.0
#XUNITS      : keV
#YUNITS      : counts
#DATATYPE    : XY
#XPERCHAN    : 0.01
#OFFSET      : -0.1
#SIGNALTYPE  : EDS
#CHOFFSET    : 10.0
#LIVETIME    : 59.9865
#REALTIME    : 60.6477
#BEAMKV      : 10.0
#MAGCAM      : 18000.0
#XTILTSTGE   : 0.0
#AZIMANGLE   : 0.0
#ELEVANGLE   : 25.5
#XPOSITION mm: -1.7025
#YPOSITION mm: -1.4290
#ZPOSITION mm: 13.8180
##OXINSTPT   : 2
##OXINSTSTROB: 69.75
##OXINSTELEMS: 6,8,29,79,78,14
##OXINSTLABEL: 6, 0.277, C K?1_2
##OXINSTLABEL: 8, 0.525, O K?1
##OXINSTLABEL: 29, 8.048, Cu K?1
##OXINSTLABEL: 29, 8.905, Cu K?1
##OXINSTLABEL: 29, 0.930, Cu L?1,2
##OXINSTLABEL: 29, 0.832, Cu L?
##OXINSTLABEL: 29, 0.811, Cu Ll
##OXINSTLABEL: 79, 9.713, Au L?1
##OXINSTLABEL: 79, 8.494, Au Ll
##OXINSTLABEL: 79, 2.123, Au M?1
##OXINSTLABEL: 79, 2.410, Au M?
##OXINSTLABEL: 79, 1.648, Au M?2
##OXINSTLABEL: 79, 0.265, Au N4-N6
##OXINSTLABEL: 79, 0.251, Au N5-N6,7
##OXINSTLABEL: 78, 9.442, Pt L?1
##OXINSTLABEL: 78, 9.975, Pt L?
##OXINSTLABEL: 78, 8.268, Pt Ll
##OXINSTLABEL: 78, 2.050, Pt M?1
##OXINSTLABEL: 78, 2.331, Pt M?
##OXINSTLABEL: 78, 1.592, Pt M?2
##OXINSTLABEL: 78, 0.258, Pt N4-N6
##OXINSTLABEL: 78, 0.244, Pt N5-N6,7
##OXINSTLABEL: 14, 1.740, Si K?1
#SPECTRUM    : Spectral Data Starts Here
-0.10000, 0.0
-0.06000, 14.0
-0.02000, 452.0
0.02000, 2007.0
0.06000, 2416.0
0.10000, 663.0
0.14000, 137.0
0.18000, 122.0
0.22000, 111.0
0.26000, 188.0
0.30000, 158.0
0.34000, 40.0
0.38000, 37.0
0.42000, 50.0
0.46000, 145.0
0.50000, 484.0
0.54000, 522.0
0.58000, 165.0
0.62000, 57.0
0.66000, 42.0
0.70000, 50.0
0.74000, 43.0
0.78000, 43.0
0.82000, 57.0
0.86000, 63.0
0.90000, 73.0
0.94000, 57.0
0.98000, 75.0
1.02000, 69.0
1.06000, 78.0
1.10000, 64.0
1.14000, 61.0
1.18000, 67.0
1.22000, 76.0
1.26000, 71.0
1.30000, 68.0
1.34000, 69.0
1.38000, 76.0
1.42000, 69.0
1.46000, 66.0
1.50000, 71.0
1.54000, 80.0
1.58000, 69.0
1.62000, 104.0
1.66000, 493.0
1.70000, 2061.0
1.74000, 3423.0
1.78000, 2334.0
1.82000, 676.0
1.86000, 209.0
1.90000, 93.0
1.94000, 42.0
1.98000, 41.0
2.02000, 56.0
2.06000, 48.0
2.10000, 43.0
2.14000, 41.0
2.18000, 58.0
2.22000, 145.0
2.26000, 392.0
2.30000, 662.0
2.34000, 537.0
2.38000, 279.0
2.42000, 153.0
2.46000, 104.0
2.50000, 73.0
2.54000, 59.0
2.58000, 40.0
2.62000, 37.0
2.66000, 31.0
2.70000, 33.0
2.74000, 30.0
2.78000, 22.0
2.82000, 27.0
2.86000, 24.0
2.90000, 25.0
2.94000, 22.0
2.98000, 17.0
3.02000, 25.0
3.06000, 21.0
3.10000, 23.0
3.14000, 31.0
3.18000, 26.0
3.22000, 22.0
3.26000, 18.0
3.30000, 21.0
3.34000, 22.0
3.38000, 22.0
3.42000, 17.0
3.46000, 23.0
3.50000, 19.0
3.54000, 20.0
3.58000, 15.0
3.62000, 21.0
3.66000, 17.0
3.70000, 18.0
3.74000, 21.0
3.78000, 17.0
3.82000, 15.0
3.86000, 20.0
3.90000, 19.0
3.94000, 18.0
3.98000, 17.0
4.02000, 17.0
4.06000, 16.0
4.10000, 15.0
4.14000, 15.0
4.18000, 15.0
4.22000, 19.0
4.26000, 15.0
4.30000, 13.0
4.34000, 11.0
4.38000, 12.0
4.42000, 18.0
4.46000, 12.0
4.50000, 16.0
4.54000, 13.0
4.58000, 16.0
4.62000, 15.0
4.66000, 11.0
4.70000, 12.0
4.74000, 14.0
4.78000, 10.0
4.82000, 5.0
4.86000, 15.0
4.90000, 13.0
4.94000, 9.0
4.98000, 12.0
5.02000, 10.0
5.06000, 10.0
5.10000, 10.0
5.14000, 8.0
5.18000, 10.0
5.22000, 11.0
5.26000, 4.0
5.30000, 5.0
5.34000, 8.0
5.38000, 9.0
5.42000, 9.0
5.46000, 15.0
5.50000, 11.0
5.54000, 9.0
5.58000, 6.0
5.62000, 4.0
5.66000, 10.0
5.70000, 8.0
5.74000, 11.0
5.78000, 9.0
5.82000, 7.0
5.86000, 8.0
5.90000, 7.0
5.94000, 2.0
5.98000, 6.0
6.02000, 5.0
6.06000, 6.0
6.10000, 3.0
6.14000, 7.0
6.18000, 7.0
6.22000, 11.0
6.26000, 8.0
6.30000, 8.0
6.34000, 3.0
6.38000, 8.0
6.42000, 6.0
6.46000, 7.0
6.50000, 1.0
6.54000, 9.0
6.58000, 5.0
6.62000, 9.0
6.66000, 9.0
6.70000, 6.0
6.74000, 7.0
6.78000, 10.0
6.82000, 7.0
6.86000, 5.0
6.90000, 11.0
6.94000, 4.0
6.98000, 4.0
7.02000, 1.0
7.06000, 3.0
7.10000, 6.0
7.14000, 5.0
7.18000, 3.0
7.22000, 5.0
7.26000, 5.0
7.30000, 1.0
7.34000, 6.0
7.38000, 2.0
7.42000, 6.0
7.46000, 3.0
7.50000, 1.0
7.54000, 3.0
7.58000, 7.0
7.62000, 5.0
7.66000, 4.0
7.70000, 3.0
7.74000, 3.0
7.78000, 3.0
7.82000, 3.0
7.86000, 0.0
7.90000, 4.0
7.94000, 4.0
7.98000, 5.0
8.02000, 1.0
8.06000, 1.0
8.10000, 3.0
8.14000, 4.0
8.18000, 1.0
8.22000, 3.0
8.26000, 1.0
8.30000, 1.0
8.34000, 3.0
8.38000, 4.0
8.42000, 3.0
8.46000, 1.0
8.50000, 4.0
8.54000, 4.0
8.58000, 2.0
8.62000, 6.0
8.66000, 2.0
8.70000, 4.0
8.74000, 3.0
8.78000, 1.0
8.82000, 1.0
8.86000, 0.0
8.90000, 2.0
8.94000, 0.0
8.98000, 3.0
9.02000, 4.0
9.06000, 1.0
9.10000, 2.0
9.14000, 1.0
9.18000, 1.0
9.22000, 2.0
9.26000, 2.0
9.30000, 1.0
9.34000, 4.0
9.38000, 2.0
9.42000, 1.0
9.46000, 2.0
9.50000, 2.0
9.54000, 2.0
9.58000, 2.0
9.62000, 2.0
9.66000, 0.0
9.70000, 1.0
9.74000, 0.0
9.78000, 0.0
9.82000, 2.0
9.86000, 0.0
9.90000, 0.0
9.94000, 1.0
9.98000, 0.0
10.02000, 0.0
10.06000, 1.0
10.10000, 1.0
10.13000, 0.0
#ENDOFDATA   :