File: Spectras 300724/B15_15k_310724_1.txt
#FORMAT      : EMSA/MAS Spectral Data File
#VERSION     : 1.0
#TITLE       : B15_15k_310724_1
#DATE        : 30-JUL-2024
#TIME        : 09:50
#OWNER       :
#NPOINTS     : 1024.0
#NCOLUMNS    : 1.0
#XUNITS      : keV
#YUNITS      : counts
#DATATYPE    : XY
#XPERCHAN    : 0.02
#OFFSET      : -0.2
#SIGNALTYPE  : EDS
#CHOFFSET    : 10.0
#LIVETIME    : 60.0859
#REALTIME    : 60.9696
#BEAMKV      : 15.0
#MAGCAM      : 12000.0
#XTILTSTGE   : 0.0
#AZIMANGLE   : 0.0
#ELEVANGLE   : 25.5
#XPOSITION mm: -1.6963
#YPOSITION mm: -1.4368
#ZPOSITION mm: 13.7246
##OXINSTPT   : 2
##OXINSTSTROB: 69.69
##OXINSTELEMS: 6,8,29,79,78,14
##OXINSTLABEL: 6, 0.277, C K?1_2
##OXINSTLABEL: 8, 0.525, O K?1
##OXINSTLABEL: 29, 8.048, Cu K?1
##OXINSTLABEL: 29, 8.905, Cu K?1
##OXINSTLABEL: 29, 0.930, Cu L?1,2
##OXINSTLABEL: 29, 0.832, Cu L?
##OXINSTLABEL: 29, 0.811, Cu Ll
##OXINSTLABEL: 79, 9.713, Au L?1
##OXINSTLABEL: 79, 11.443, Au L?1
##OXINSTLABEL: 79, 11.585, Au L?2
##OXINSTLABEL: 79, 10.308, Au L?
##OXINSTLABEL: 79, 13.382, Au L?1
##OXINSTLABEL: 79, 13.710, Au L?2
##OXINSTLABEL: 79, 8.494, Au Ll
##OXINSTLABEL: 79, 2.123, Au M?1
##OXINSTLABEL: 79, 2.410, Au M?
##OXINSTLABEL: 79, 1.648, Au M?2
##OXINSTLABEL: 79, 0.265, Au N4-N6
##OXINSTLABEL: 79, 0.251, Au N5-N6,7
##OXINSTLABEL: 78, 9.442, Pt L?1
##OXINSTLABEL: 78, 11.071, Pt L?1
##OXINSTLABEL: 78, 11.251, Pt L?2
##OXINSTLABEL: 78, 9.975, Pt L?
##OXINSTLABEL: 78, 12.942, Pt L?1
##OXINSTLABEL: 78, 13.271, Pt L?2
##OXINSTLABEL: 78, 8.268, Pt Ll
##OXINSTLABEL: 78, 2.050, Pt M?1
##OXINSTLABEL: 78, 2.331, Pt M?
##OXINSTLABEL: 78, 1.592, Pt M?2
##OXINSTLABEL: 78, 0.258, Pt N4-N6
##OXINSTLABEL: 78, 0.244, Pt N5-N6,7
##OXINSTLABEL: 14, 1.740, Si K?1
#SPECTRUM    : Spectral Data Starts Here
-0.20000, 0.0
-0.12000, 0.0
-0.04000, 287.0
0.04000, 5111.0
0.12000, 526.0
0.20000, 141.0
0.28000, 281.0
0.36000, 52.0
0.44000, 111.0
0.52000, 766.0
0.60000, 132.0
0.68000, 70.0
0.76000, 82.0
0.84000, 102.0
0.92000, 134.0
1.00000, 143.0
1.08000, 175.0
1.16000, 162.0
1.24000, 205.0
1.32000, 210.0
1.40000, 201.0
1.48000, 224.0
1.56000, 233.0
1.64000, 1081.0
1.72000, 14848.0
1.80000, 7323.0
1.88000, 593.0
1.96000, 105.0
2.04000, 93.0
2.12000, 86.0
2.20000, 160.0
2.28000, 879.0
2.36000, 684.0
2.44000, 238.0
2.52000, 133.0
2.60000, 74.0
2.68000, 64.0
2.76000, 70.0
2.84000, 69.0
2.92000, 56.0
3.00000, 65.0
3.08000, 65.0
3.16000, 71.0
3.24000, 63.0
3.32000, 68.0
3.40000, 71.0
3.48000, 59.0
3.56000, 55.0
3.64000, 50.0
3.72000, 53.0
3.80000, 48.0
3.88000, 49.0
3.96000, 57.0
4.04000, 49.0
4.12000, 46.0
4.20000, 46.0
4.28000, 46.0
4.36000, 45.0
4.44000, 42.0
4.52000, 42.0
4.60000, 39.0
4.68000, 36.0
4.76000, 41.0
4.84000, 43.0
4.92000, 32.0
5.00000, 35.0
5.08000, 48.0
5.16000, 33.0
5.24000, 40.0
5.32000, 42.0
5.40000, 39.0
5.48000, 31.0
5.56000, 32.0
5.64000, 33.0
5.72000, 30.0
5.80000, 25.0
5.88000, 29.0
5.96000, 24.0
6.04000, 32.0
6.12000, 26.0
6.20000, 30.0
6.28000, 27.0
6.36000, 26.0
6.44000, 26.0
6.52000, 20.0
6.60000, 22.0
6.68000, 28.0
6.76000, 25.0
6.84000, 20.0
6.92000, 27.0
7.00000, 21.0
7.08000, 21.0
7.16000, 19.0
7.24000, 20.0
7.32000, 23.0
7.40000, 16.0
7.48000, 18.0
7.56000, 22.0
7.64000, 19.0
7.72000, 11.0
7.80000, 13.0
7.88000, 18.0
7.96000, 21.0
8.04000, 15.0
8.12000, 15.0
8.20000, 18.0
8.28000, 12.0
8.36000, 14.0
8.44000, 15.0
8.52000, 15.0
8.60000, 13.0
8.68000, 12.0
8.76000, 12.0
8.84000, 13.0
8.92000, 7.0
9.00000, 16.0
9.08000, 12.0
9.16000, 9.0
9.24000, 15.0
9.32000, 16.0
9.40000, 11.0
9.48000, 11.0
9.56000, 8.0
9.64000, 10.0
9.72000, 13.0
9.80000, 13.0
9.88000, 8.0
9.96000, 9.0
10.04000, 8.0
10.12000, 8.0
10.20000, 11.0
10.28000, 8.0
10.36000, 11.0
10.44000, 10.0
10.52000, 5.0
10.60000, 8.0
10.68000, 7.0
10.76000, 5.0
10.84000, 7.0
10.92000, 9.0
11.00000, 5.0
11.08000, 6.0
11.16000, 4.0
11.24000, 4.0
11.32000, 9.0
11.40000, 6.0
11.48000, 7.0
11.56000, 9.0
11.64000, 6.0
11.72000, 5.0
11.80000, 4.0
11.88000, 2.0
11.96000, 3.0
12.04000, 4.0
12.12000, 2.0
12.20000, 1.0
12.28000, 4.0
12.36000, 3.0
12.44000, 4.0
12.52000, 5.0
12.60000, 3.0
12.68000, 3.0
12.76000, 3.0
12.84000, 3.0
12.92000, 3.0
13.00000, 4.0
13.08000, 2.0
13.16000, 3.0
13.24000, 3.0
13.32000, 2.0
13.40000, 3.0
13.48000, 1.0
13.56000, 1.0
13.64000, 0.0
13.72000, 2.0
13.80000, 0.0
13.88000, 1.0
13.96000, 1.0
14.04000, 1.0
14.12000, 0.0
14.20000, 1.0
14.28000, 2.0
14.36000, 1.0
14.44000, 0.0
14.52000, 0.0
14.60000, 0.0
14.68000, 0.0
14.76000, 1.0
14.84000, 1.0
14.92000, 0.0
15.00000, 0.0
15.08000, 0.0
15.16000, 0.0
15.24000, 0.0
15.32000, 0.0
15.40000, 0.0
15.48000, 0.0
15.56000, 0.0
15.64000, 0.0
15.72000, 0.0
15.80000, 0.0
15.88000, 0.0
15.96000, 0.0
16.04000, 0.0
16.12000, 0.0
16.20000, 0.0
16.28000, 0.0
16.36000, 0.0
16.44000, 0.0
16.52000, 0.0
16.60000, 0.0
16.68000, 0.0
16.76000, 0.0
16.84000, 0.0
16.92000, 0.0
17.00000, 0.0
17.08000, 0.0
17.16000, 0.0
17.24000, 0.0
17.32000, 0.0
17.40000, 0.0
17.48000, 0.0
17.56000, 0.0
17.64000, 0.0
17.72000, 0.0
17.80000, 0.0
17.88000, 0.0
17.96000, 0.0
18.04000, 0.0
18.12000, 0.0
18.20000, 0.0
18.28000, 0.0
18.36000, 0.0
18.44000, 0.0
18.52000, 0.0
18.60000, 0.0
18.68000, 0.0
18.76000, 0.0
18.84000, 0.0
18.92000, 0.0
19.00000, 0.0
19.08000, 0.0
19.16000, 0.0
19.24000, 0.0
19.32000, 0.0
19.40000, 0.0
19.48000, 0.0
19.56000, 0.0
19.64000, 0.0
19.72000, 0.0
19.80000, 0.0
19.88000, 0.0
19.96000, 0.0
20.04000, 0.0
20.12000, 0.0
20.20000, 0.0
20.26000, 0.0
#ENDOFDATA   :