File: Spectras 300724/B15_10k_310724_2.txt
#FORMAT      : EMSA/MAS Spectral Data File
#VERSION     : 1.0
#TITLE       : B15_10k_310724_2
#DATE        : 30-JUL-2024
#TIME        : 09:40
#OWNER       :
#NPOINTS     : 1024.0
#NCOLUMNS    : 1.0
#XUNITS      : keV
#YUNITS      : counts
#DATATYPE    : XY
#XPERCHAN    : 0.01
#OFFSET      : -0.1
#SIGNALTYPE  : EDS
#CHOFFSET    : 10.0
#LIVETIME    : 60.0809
#REALTIME    : 60.8386
#BEAMKV      : 10.0
#MAGCAM      : 18000.0
#XTILTSTGE   : 0.0
#AZIMANGLE   : 0.0
#ELEVANGLE   : 25.5
#XPOSITION mm: -1.7025
#YPOSITION mm: -1.4290
#ZPOSITION mm: 13.8180
##OXINSTPT   : 2
##OXINSTSTROB: 69.76
##OXINSTELEMS: 6,8,29,79,78,14
##OXINSTLABEL: 6, 0.277, C K?1_2
##OXINSTLABEL: 8, 0.525, O K?1
##OXINSTLABEL: 29, 8.048, Cu K?1
##OXINSTLABEL: 29, 8.905, Cu K?1
##OXINSTLABEL: 29, 0.930, Cu L?1,2
##OXINSTLABEL: 29, 0.832, Cu L?
##OXINSTLABEL: 29, 0.811, Cu Ll
##OXINSTLABEL: 79, 9.713, Au L?1
##OXINSTLABEL: 79, 8.494, Au Ll
##OXINSTLABEL: 79, 2.123, Au M?1
##OXINSTLABEL: 79, 2.410, Au M?
##OXINSTLABEL: 79, 1.648, Au M?2
##OXINSTLABEL: 79, 0.265, Au N4-N6
##OXINSTLABEL: 79, 0.251, Au N5-N6,7
##OXINSTLABEL: 78, 9.442, Pt L?1
##OXINSTLABEL: 78, 9.975, Pt L?
##OXINSTLABEL: 78, 8.268, Pt Ll
##OXINSTLABEL: 78, 2.050, Pt M?1
##OXINSTLABEL: 78, 2.331, Pt M?
##OXINSTLABEL: 78, 1.592, Pt M?2
##OXINSTLABEL: 78, 0.258, Pt N4-N6
##OXINSTLABEL: 78, 0.244, Pt N5-N6,7
##OXINSTLABEL: 14, 1.740, Si K?1
#SPECTRUM    : Spectral Data Starts Here
-0.10000, 0.0
-0.06000, 18.0
-0.02000, 453.0
0.02000, 2001.0
0.06000, 2334.0
0.10000, 672.0
0.14000, 136.0
0.18000, 110.0
0.22000, 109.0
0.26000, 192.0
0.30000, 138.0
0.34000, 48.0
0.38000, 41.0
0.42000, 41.0
0.46000, 131.0
0.50000, 488.0
0.54000, 498.0
0.58000, 182.0
0.62000, 47.0
0.66000, 38.0
0.70000, 46.0
0.74000, 53.0
0.78000, 60.0
0.82000, 65.0
0.86000, 68.0
0.90000, 61.0
0.94000, 60.0
0.98000, 68.0
1.02000, 73.0
1.06000, 83.0
1.10000, 68.0
1.14000, 88.0
1.18000, 70.0
1.22000, 72.0
1.26000, 69.0
1.30000, 74.0
1.34000, 71.0
1.38000, 71.0
1.42000, 79.0
1.46000, 72.0
1.50000, 64.0
1.54000, 93.0
1.58000, 90.0
1.62000, 102.0
1.66000, 493.0
1.70000, 2020.0
1.74000, 3430.0
1.78000, 2378.0
1.82000, 748.0
1.86000, 224.0
1.90000, 83.0
1.94000, 50.0
1.98000, 42.0
2.02000, 48.0
2.06000, 47.0
2.10000, 38.0
2.14000, 38.0
2.18000, 60.0
2.22000, 133.0
2.26000, 412.0
2.30000, 639.0
2.34000, 550.0
2.38000, 274.0
2.42000, 178.0
2.46000, 107.0
2.50000, 80.0
2.54000, 53.0
2.58000, 31.0
2.62000, 39.0
2.66000, 28.0
2.70000, 30.0
2.74000, 24.0
2.78000, 26.0
2.82000, 21.0
2.86000, 31.0
2.90000, 26.0
2.94000, 25.0
2.98000, 23.0
3.02000, 21.0
3.06000, 24.0
3.10000, 25.0
3.14000, 21.0
3.18000, 17.0
3.22000, 25.0
3.26000, 21.0
3.30000, 23.0
3.34000, 14.0
3.38000, 22.0
3.42000, 21.0
3.46000, 20.0
3.50000, 19.0
3.54000, 22.0
3.58000, 26.0
3.62000, 18.0
3.66000, 15.0
3.70000, 14.0
3.74000, 18.0
3.78000, 19.0
3.82000, 16.0
3.86000, 24.0
3.90000, 18.0
3.94000, 19.0
3.98000, 12.0
4.02000, 16.0
4.06000, 16.0
4.10000, 13.0
4.14000, 9.0
4.18000, 15.0
4.22000, 15.0
4.26000, 10.0
4.30000, 12.0
4.34000, 18.0
4.38000, 12.0
4.42000, 15.0
4.46000, 11.0
4.50000, 11.0
4.54000, 13.0
4.58000, 13.0
4.62000, 15.0
4.66000, 14.0
4.70000, 13.0
4.74000, 14.0
4.78000, 13.0
4.82000, 14.0
4.86000, 16.0
4.90000, 11.0
4.94000, 13.0
4.98000, 10.0
5.02000, 11.0
5.06000, 9.0
5.10000, 14.0
5.14000, 13.0
5.18000, 10.0
5.22000, 6.0
5.26000, 11.0
5.30000, 9.0
5.34000, 9.0
5.38000, 8.0
5.42000, 2.0
5.46000, 4.0
5.50000, 11.0
5.54000, 15.0
5.58000, 10.0
5.62000, 5.0
5.66000, 9.0
5.70000, 5.0
5.74000, 5.0
5.78000, 6.0
5.82000, 6.0
5.86000, 11.0
5.90000, 7.0
5.94000, 9.0
5.98000, 9.0
6.02000, 7.0
6.06000, 10.0
6.10000, 11.0
6.14000, 9.0
6.18000, 7.0
6.22000, 6.0
6.26000, 5.0
6.30000, 6.0
6.34000, 13.0
6.38000, 5.0
6.42000, 6.0
6.46000, 9.0
6.50000, 6.0
6.54000, 12.0
6.58000, 9.0
6.62000, 5.0
6.66000, 10.0
6.70000, 7.0
6.74000, 9.0
6.78000, 6.0
6.82000, 5.0
6.86000, 4.0
6.90000, 6.0
6.94000, 3.0
6.98000, 1.0
7.02000, 5.0
7.06000, 5.0
7.10000, 3.0
7.14000, 6.0
7.18000, 10.0
7.22000, 4.0
7.26000, 5.0
7.30000, 4.0
7.34000, 4.0
7.38000, 3.0
7.42000, 4.0
7.46000, 4.0
7.50000, 4.0
7.54000, 4.0
7.58000, 5.0
7.62000, 3.0
7.66000, 1.0
7.70000, 5.0
7.74000, 5.0
7.78000, 2.0
7.82000, 1.0
7.86000, 6.0
7.90000, 1.0
7.94000, 5.0
7.98000, 2.0
8.02000, 3.0
8.06000, 5.0
8.10000, 2.0
8.14000, 5.0
8.18000, 3.0
8.22000, 5.0
8.26000, 2.0
8.30000, 1.0
8.34000, 1.0
8.38000, 4.0
8.42000, 6.0
8.46000, 2.0
8.50000, 4.0
8.54000, 3.0
8.58000, 4.0
8.62000, 3.0
8.66000, 2.0
8.70000, 2.0
8.74000, 1.0
8.78000, 1.0
8.82000, 3.0
8.86000, 4.0
8.90000, 1.0
8.94000, 1.0
8.98000, 3.0
9.02000, 3.0
9.06000, 1.0
9.10000, 0.0
9.14000, 2.0
9.18000, 2.0
9.22000, 1.0
9.26000, 2.0
9.30000, 2.0
9.34000, 1.0
9.38000, 0.0
9.42000, 2.0
9.46000, 1.0
9.50000, 1.0
9.54000, 1.0
9.58000, 0.0
9.62000, 0.0
9.66000, 0.0
9.70000, 0.0
9.74000, 0.0
9.78000, 1.0
9.82000, 1.0
9.86000, 1.0
9.90000, 0.0
9.94000, 0.0
9.98000, 0.0
10.02000, 0.0
10.06000, 0.0
10.10000, 0.0
10.13000, 0.0
#ENDOFDATA   :