File: Spectras 300724/B15_10k_310724_3.txt
#FORMAT      : EMSA/MAS Spectral Data File
#VERSION     : 1.0
#TITLE       : B15_10k_310724_3
#DATE        : 30-JUL-2024
#TIME        : 09:41
#OWNER       :
#NPOINTS     : 1024.0
#NCOLUMNS    : 1.0
#XUNITS      : keV
#YUNITS      : counts
#DATATYPE    : XY
#XPERCHAN    : 0.01
#OFFSET      : -0.1
#SIGNALTYPE  : EDS
#CHOFFSET    : 10.0
#LIVETIME    : 60.0277
#REALTIME    : 60.6983
#BEAMKV      : 10.0
#MAGCAM      : 18000.0
#XTILTSTGE   : 0.0
#AZIMANGLE   : 0.0
#ELEVANGLE   : 25.5
#XPOSITION mm: -1.7025
#YPOSITION mm: -1.4290
#ZPOSITION mm: 13.8180
##OXINSTPT   : 2
##OXINSTSTROB: 69.72
##OXINSTELEMS: 6,8,29,79,78,14
##OXINSTLABEL: 6, 0.277, C K?1_2
##OXINSTLABEL: 8, 0.525, O K?1
##OXINSTLABEL: 29, 8.048, Cu K?1
##OXINSTLABEL: 29, 8.905, Cu K?1
##OXINSTLABEL: 29, 0.930, Cu L?1,2
##OXINSTLABEL: 29, 0.832, Cu L?
##OXINSTLABEL: 29, 0.811, Cu Ll
##OXINSTLABEL: 79, 9.713, Au L?1
##OXINSTLABEL: 79, 8.494, Au Ll
##OXINSTLABEL: 79, 2.123, Au M?1
##OXINSTLABEL: 79, 2.410, Au M?
##OXINSTLABEL: 79, 1.648, Au M?2
##OXINSTLABEL: 79, 0.265, Au N4-N6
##OXINSTLABEL: 79, 0.251, Au N5-N6,7
##OXINSTLABEL: 78, 9.442, Pt L?1
##OXINSTLABEL: 78, 9.975, Pt L?
##OXINSTLABEL: 78, 8.268, Pt Ll
##OXINSTLABEL: 78, 2.050, Pt M?1
##OXINSTLABEL: 78, 2.331, Pt M?
##OXINSTLABEL: 78, 1.592, Pt M?2
##OXINSTLABEL: 78, 0.258, Pt N4-N6
##OXINSTLABEL: 78, 0.244, Pt N5-N6,7
##OXINSTLABEL: 14, 1.740, Si K?1
#SPECTRUM    : Spectral Data Starts Here
-0.10000, 0.0
-0.06000, 20.0
-0.02000, 414.0
0.02000, 2040.0
0.06000, 2358.0
0.10000, 666.0
0.14000, 132.0
0.18000, 117.0
0.22000, 125.0
0.26000, 217.0
0.30000, 166.0
0.34000, 48.0
0.38000, 45.0
0.42000, 53.0
0.46000, 136.0
0.50000, 442.0
0.54000, 497.0
0.58000, 148.0
0.62000, 46.0
0.66000, 36.0
0.70000, 47.0
0.74000, 49.0
0.78000, 53.0
0.82000, 61.0
0.86000, 63.0
0.90000, 73.0
0.94000, 65.0
0.98000, 63.0
1.02000, 68.0
1.06000, 68.0
1.10000, 70.0
1.14000, 72.0
1.18000, 77.0
1.22000, 66.0
1.26000, 65.0
1.30000, 62.0
1.34000, 79.0
1.38000, 79.0
1.42000, 72.0
1.46000, 77.0
1.50000, 71.0
1.54000, 76.0
1.58000, 87.0
1.62000, 100.0
1.66000, 483.0
1.70000, 2004.0
1.74000, 3355.0
1.78000, 2326.0
1.82000, 732.0
1.86000, 224.0
1.90000, 84.0
1.94000, 46.0
1.98000, 48.0
2.02000, 48.0
2.06000, 42.0
2.10000, 43.0
2.14000, 50.0
2.18000, 51.0
2.22000, 129.0
2.26000, 407.0
2.30000, 671.0
2.34000, 550.0
2.38000, 298.0
2.42000, 172.0
2.46000, 117.0
2.50000, 81.0
2.54000, 44.0
2.58000, 39.0
2.62000, 34.0
2.66000, 30.0
2.70000, 27.0
2.74000, 26.0
2.78000, 24.0
2.82000, 28.0
2.86000, 28.0
2.90000, 19.0
2.94000, 21.0
2.98000, 21.0
3.02000, 14.0
3.06000, 21.0
3.10000, 27.0
3.14000, 20.0
3.18000, 22.0
3.22000, 21.0
3.26000, 22.0
3.30000, 21.0
3.34000, 20.0
3.38000, 21.0
3.42000, 26.0
3.46000, 26.0
3.50000, 14.0
3.54000, 19.0
3.58000, 16.0
3.62000, 20.0
3.66000, 14.0
3.70000, 14.0
3.74000, 23.0
3.78000, 16.0
3.82000, 17.0
3.86000, 20.0
3.90000, 18.0
3.94000, 17.0
3.98000, 18.0
4.02000, 15.0
4.06000, 20.0
4.10000, 19.0
4.14000, 13.0
4.18000, 12.0
4.22000, 11.0
4.26000, 8.0
4.30000, 11.0
4.34000, 13.0
4.38000, 15.0
4.42000, 15.0
4.46000, 7.0
4.50000, 14.0
4.54000, 7.0
4.58000, 15.0
4.62000, 14.0
4.66000, 11.0
4.70000, 6.0
4.74000, 13.0
4.78000, 8.0
4.82000, 18.0
4.86000, 11.0
4.90000, 11.0
4.94000, 12.0
4.98000, 9.0
5.02000, 8.0
5.06000, 8.0
5.10000, 8.0
5.14000, 8.0
5.18000, 11.0
5.22000, 8.0
5.26000, 4.0
5.30000, 9.0
5.34000, 9.0
5.38000, 4.0
5.42000, 8.0
5.46000, 8.0
5.50000, 12.0
5.54000, 10.0
5.58000, 10.0
5.62000, 4.0
5.66000, 8.0
5.70000, 6.0
5.74000, 4.0
5.78000, 6.0
5.82000, 5.0
5.86000, 5.0
5.90000, 8.0
5.94000, 8.0
5.98000, 7.0
6.02000, 7.0
6.06000, 3.0
6.10000, 4.0
6.14000, 5.0
6.18000, 6.0
6.22000, 6.0
6.26000, 7.0
6.30000, 4.0
6.34000, 7.0
6.38000, 3.0
6.42000, 6.0
6.46000, 5.0
6.50000, 7.0
6.54000, 6.0
6.58000, 6.0
6.62000, 9.0
6.66000, 3.0
6.70000, 4.0
6.74000, 6.0
6.78000, 1.0
6.82000, 4.0
6.86000, 9.0
6.90000, 7.0
6.94000, 7.0
6.98000, 3.0
7.02000, 3.0
7.06000, 7.0
7.10000, 6.0
7.14000, 4.0
7.18000, 7.0
7.22000, 9.0
7.26000, 5.0
7.30000, 6.0
7.34000, 2.0
7.38000, 6.0
7.42000, 8.0
7.46000, 6.0
7.50000, 6.0
7.54000, 5.0
7.58000, 4.0
7.62000, 5.0
7.66000, 4.0
7.70000, 3.0
7.74000, 3.0
7.78000, 3.0
7.82000, 2.0
7.86000, 6.0
7.90000, 2.0
7.94000, 4.0
7.98000, 1.0
8.02000, 3.0
8.06000, 4.0
8.10000, 3.0
8.14000, 5.0
8.18000, 4.0
8.22000, 1.0
8.26000, 3.0
8.30000, 0.0
8.34000, 4.0
8.38000, 3.0
8.42000, 2.0
8.46000, 2.0
8.50000, 2.0
8.54000, 2.0
8.58000, 2.0
8.62000, 0.0
8.66000, 3.0
8.70000, 0.0
8.74000, 1.0
8.78000, 3.0
8.82000, 0.0
8.86000, 4.0
8.90000, 4.0
8.94000, 3.0
8.98000, 2.0
9.02000, 4.0
9.06000, 1.0
9.10000, 2.0
9.14000, 2.0
9.18000, 1.0
9.22000, 2.0
9.26000, 3.0
9.30000, 0.0
9.34000, 2.0
9.38000, 1.0
9.42000, 0.0
9.46000, 2.0
9.50000, 1.0
9.54000, 2.0
9.58000, 1.0
9.62000, 1.0
9.66000, 2.0
9.70000, 0.0
9.74000, 1.0
9.78000, 2.0
9.82000, 1.0
9.86000, 2.0
9.90000, 0.0
9.94000, 1.0
9.98000, 0.0
10.02000, 0.0
10.06000, 0.0
10.10000, 0.0
10.13000, 0.0
#ENDOFDATA   :