File: Spectras 300724/C10A2_10k_310724_Area_1.txt
#FORMAT      : EMSA/MAS Spectral Data File
#VERSION     : 1.0
#TITLE       : C10A2_10k_310724_Area_1
#DATE        : 30-JUL-2024
#TIME        : 10:42
#OWNER       :
#NPOINTS     : 2048.0
#NCOLUMNS    : 1.0
#XUNITS      : keV
#YUNITS      : counts
#DATATYPE    : XY
#XPERCHAN    : 0.005
#OFFSET      : -0.1
#SIGNALTYPE  : EDS
#CHOFFSET    : 20.0
#LIVETIME    : 60.0396
#REALTIME    : 60.6597
#BEAMKV      : 10.0
#MAGCAM      : 5000.0
#XTILTSTGE   : 0.0
#AZIMANGLE   : 0.0
#ELEVANGLE   : 25.5
#XPOSITION mm: -0.4063
#YPOSITION mm: -1.2208
#ZPOSITION mm: 13.8600
##OXINSTPT   : 2
##OXINSTSTROB: 69.70
##OXINSTELEMS: 6,8,29,79,78,14
##OXINSTLABEL: 6, 0.277, C K?1_2
##OXINSTLABEL: 8, 0.525, O K?1
##OXINSTLABEL: 29, 8.048, Cu K?1
##OXINSTLABEL: 29, 8.905, Cu K?1
##OXINSTLABEL: 29, 0.930, Cu L?1,2
##OXINSTLABEL: 29, 0.832, Cu L?
##OXINSTLABEL: 29, 0.811, Cu Ll
##OXINSTLABEL: 79, 9.713, Au L?1
##OXINSTLABEL: 79, 8.494, Au Ll
##OXINSTLABEL: 79, 2.123, Au M?1
##OXINSTLABEL: 79, 2.410, Au M?
##OXINSTLABEL: 79, 1.648, Au M?2
##OXINSTLABEL: 79, 0.265, Au N4-N6
##OXINSTLABEL: 79, 0.251, Au N5-N6,7
##OXINSTLABEL: 78, 9.442, Pt L?1
##OXINSTLABEL: 78, 9.975, Pt L?
##OXINSTLABEL: 78, 8.268, Pt Ll
##OXINSTLABEL: 78, 2.050, Pt M?1
##OXINSTLABEL: 78, 2.331, Pt M?
##OXINSTLABEL: 78, 1.592, Pt M?2
##OXINSTLABEL: 78, 0.258, Pt N4-N6
##OXINSTLABEL: 78, 0.244, Pt N5-N6,7
##OXINSTLABEL: 14, 1.740, Si K?1
#SPECTRUM    : Spectral Data Starts Here
-0.10000, 0.0
-0.06500, 4.0
-0.03000, 117.0
0.00500, 678.0
0.04000, 1379.0
0.07500, 878.0
0.11000, 184.0
0.14500, 65.0
0.18000, 69.0
0.21500, 53.0
0.25000, 82.0
0.28500, 85.0
0.32000, 48.0
0.35500, 16.0
0.39000, 18.0
0.42500, 23.0
0.46000, 55.0
0.49500, 163.0
0.53000, 242.0
0.56500, 130.0
0.60000, 39.0
0.63500, 21.0
0.67000, 13.0
0.70500, 18.0
0.74000, 26.0
0.77500, 29.0
0.81000, 26.0
0.84500, 27.0
0.88000, 37.0
0.91500, 26.0
0.95000, 31.0
0.98500, 37.0
1.02000, 29.0
1.05500, 39.0
1.09000, 36.0
1.12500, 23.0
1.16000, 34.0
1.19500, 31.0
1.23000, 44.0
1.26500, 38.0
1.30000, 34.0
1.33500, 29.0
1.37000, 35.0
1.40500, 36.0
1.44000, 37.0
1.47500, 39.0
1.51000, 38.0
1.54500, 31.0
1.58000, 37.0
1.61500, 41.0
1.65000, 146.0
1.68500, 559.0
1.72000, 1319.0
1.75500, 1510.0
1.79000, 847.0
1.82500, 276.0
1.86000, 100.0
1.89500, 51.0
1.93000, 26.0
1.96500, 26.0
2.00000, 26.0
2.03500, 21.0
2.07000, 27.0
2.10500, 26.0
2.14000, 26.0
2.17500, 22.0
2.21000, 57.0
2.24500, 152.0
2.28000, 285.0
2.31500, 367.0
2.35000, 259.0
2.38500, 147.0
2.42000, 100.0
2.45500, 68.0
2.49000, 44.0
2.52500, 35.0
2.56000, 22.0
2.59500, 11.0
2.63000, 18.0
2.66500, 13.0
2.70000, 16.0
2.73500, 15.0
2.77000, 14.0
2.80500, 10.0
2.84000, 13.0
2.87500, 13.0
2.91000, 16.0
2.94500, 18.0
2.98000, 11.0
3.01500, 13.0
3.05000, 10.0
3.08500, 11.0
3.12000, 10.0
3.15500, 13.0
3.19000, 8.0
3.22500, 14.0
3.26000, 6.0
3.29500, 14.0
3.33000, 4.0
3.36500, 10.0
3.40000, 11.0
3.43500, 12.0
3.47000, 13.0
3.50500, 16.0
3.54000, 10.0
3.57500, 10.0
3.61000, 13.0
3.64500, 9.0
3.68000, 16.0
3.71500, 8.0
3.75000, 9.0
3.78500, 11.0
3.82000, 11.0
3.85500, 7.0
3.89000, 9.0
3.92500, 6.0
3.96000, 14.0
3.99500, 7.0
4.03000, 10.0
4.06500, 10.0
4.10000, 4.0
4.13500, 9.0
4.17000, 7.0
4.20500, 10.0
4.24000, 6.0
4.27500, 4.0
4.31000, 5.0
4.34500, 6.0
4.38000, 6.0
4.41500, 5.0
4.45000, 7.0
4.48500, 4.0
4.52000, 7.0
4.55500, 2.0
4.59000, 7.0
4.62500, 6.0
4.66000, 4.0
4.69500, 6.0
4.73000, 6.0
4.76500, 5.0
4.80000, 9.0
4.83500, 8.0
4.87000, 7.0
4.90500, 4.0
4.94000, 5.0
4.97500, 4.0
5.01000, 6.0
5.04500, 6.0
5.08000, 6.0
5.11500, 8.0
5.15000, 6.0
5.18500, 7.0
5.22000, 10.0
5.25500, 3.0
5.29000, 1.0
5.32500, 5.0
5.36000, 6.0
5.39500, 4.0
5.43000, 3.0
5.46500, 5.0
5.50000, 5.0
5.53500, 5.0
5.57000, 4.0
5.60500, 2.0
5.64000, 5.0
5.67500, 4.0
5.71000, 5.0
5.74500, 2.0
5.78000, 5.0
5.81500, 2.0
5.85000, 4.0
5.88500, 5.0
5.92000, 5.0
5.95500, 6.0
5.99000, 5.0
6.02500, 5.0
6.06000, 1.0
6.09500, 2.0
6.13000, 6.0
6.16500, 6.0
6.20000, 5.0
6.23500, 1.0
6.27000, 3.0
6.30500, 3.0
6.34000, 3.0
6.37500, 3.0
6.41000, 2.0
6.44500, 4.0
6.48000, 4.0
6.51500, 3.0
6.55000, 2.0
6.58500, 3.0
6.62000, 2.0
6.65500, 3.0
6.69000, 2.0
6.72500, 1.0
6.76000, 2.0
6.79500, 4.0
6.83000, 4.0
6.86500, 1.0
6.90000, 0.0
6.93500, 4.0
6.97000, 2.0
7.00500, 2.0
7.04000, 4.0
7.07500, 4.0
7.11000, 4.0
7.14500, 1.0
7.18000, 2.0
7.21500, 2.0
7.25000, 4.0
7.28500, 2.0
7.32000, 2.0
7.35500, 1.0
7.39000, 2.0
7.42500, 6.0
7.46000, 4.0
7.49500, 0.0
7.53000, 2.0
7.56500, 0.0
7.60000, 3.0
7.63500, 3.0
7.67000, 3.0
7.70500, 2.0
7.74000, 3.0
7.77500, 1.0
7.81000, 2.0
7.84500, 1.0
7.88000, 3.0
7.91500, 4.0
7.95000, 2.0
7.98500, 2.0
8.02000, 2.0
8.05500, 2.0
8.09000, 4.0
8.12500, 2.0
8.16000, 2.0
8.19500, 1.0
8.23000, 2.0
8.26500, 2.0
8.30000, 0.0
8.33500, 1.0
8.37000, 2.0
8.40500, 1.0
8.44000, 2.0
8.47500, 2.0
8.51000, 1.0
8.54500, 1.0
8.58000, 0.0
8.61500, 1.0
8.65000, 1.0
8.68500, 0.0
8.72000, 1.0
8.75500, 3.0
8.79000, 2.0
8.82500, 1.0
8.86000, 1.0
8.89500, 1.0
8.93000, 1.0
8.96500, 1.0
9.00000, 0.0
9.03500, 1.0
9.07000, 1.0
9.10500, 1.0
9.14000, 0.0
9.17500, 1.0
9.21000, 2.0
9.24500, 0.0
9.28000, 0.0
9.31500, 1.0
9.35000, 0.0
9.38500, 0.0
9.42000, 0.0
9.45500, 1.0
9.49000, 1.0
9.52500, 0.0
9.56000, 1.0
9.59500, 0.0
9.63000, 1.0
9.66500, 2.0
9.70000, 1.0
9.73500, 0.0
9.77000, 0.0
9.80500, 0.0
9.84000, 0.0
9.87500, 0.0
9.91000, 0.0
9.94500, 1.0
9.98000, 0.0
10.01500, 0.0
10.05000, 0.0
10.08500, 0.0
10.12000, 0.0
10.13500, 0.0
#ENDOFDATA   :